Thu Nov 07 15:17:59 2013

Number of Points = 3699
Depth (nm)	Load (µN)	Time (s)
-5.598467	0.143646	0.000000
-7.679570	0.149408	0.016667
-8.477394	0.632029	0.033333
-7.028240	0.103858	0.050000
-8.467894	0.632029	0.066667
-6.537400	0.117058	0.083333
-8.458394	0.632029	0.100000
-7.651452	0.717162	0.116667
-6.362788	0.247689	0.133333
-7.160484	0.541110	0.150000
-6.674267	0.365057	0.166667
-6.348412	0.058374	0.183333
-7.306724	0.599794	0.200000
-5.857571	0.071637	0.216667
-7.457714	0.658478	0.233333
-6.008687	0.319696	0.250000
-6.485405	0.495747	0.266667
-6.480655	0.495747	0.283333
-5.352481	0.084963	0.300000
-5.668709	0.202330	0.316667
-5.503470	0.143646	0.333333
-5.980188	0.319696	0.350000
-7.098863	0.730480	0.366667
-6.131305	0.567813	0.383333
-6.287044	0.626495	0.400000
-5.640464	0.581258	0.416667
-4.833268	0.287849	0.433333
-5.470475	0.522576	0.450000
-4.823641	0.098352	0.466667
-5.781954	0.639940	0.483333
-6.258672	0.815986	0.500000
-5.130624	0.594767	0.516667
-5.446853	0.712129	0.533333
-4.639657	0.418723	0.550000
-4.153439	0.242680	0.566667
-4.951136	0.536085	0.583333
-3.983450	0.183999	0.600000
-5.423104	0.712129	0.616667
-4.776524	0.667018	0.633333
-4.611285	0.608338	0.650000
-4.927514	0.725698	0.666667
-3.799466	0.504612	0.683333
-3.955205	0.563292	0.700000
-3.950456	0.563292	0.716667
-3.785089	0.314936	0.733333
-4.903891	0.915369	0.750000
-3.936206	0.563292	0.766667
-4.413051	0.929062	0.783333
-3.766344	0.694347	0.800000
-3.600978	0.445932	0.816667
-3.596482	0.825461	0.833333
-3.270754	0.708105	0.850000
-3.426493	0.766783	0.866667
-3.582233	0.825461	0.883333
-3.096015	0.649427	0.900000
-3.733222	0.884139	0.916667
-3.086643	0.839281	0.933333
-3.081893	0.839281	0.950000
-3.237760	1.087870	0.966667
-2.751415	0.721926	0.983333
-2.907281	0.970517	1.000000
-2.742042	0.911840	1.016667
-2.255825	0.735810	1.033333
-2.732670	1.101812	1.050000
-2.246452	0.925784	1.066667
-3.044149	1.219164	1.083333
-2.397569	1.174492	1.100000
-2.071841	1.057142	1.116667
-2.388069	1.174492	1.133333
-1.901852	0.998467	1.150000
-2.057719	1.247233	1.166667
-2.213458	1.305907	1.183333
-2.208708	1.305907	1.200000
-2.204086	1.496056	1.216667
-1.557379	1.261362	1.233333
-1.552757	1.451572	1.250000
-1.387517	1.392899	1.266667
-1.061789	1.275553	1.283333
-1.538380	1.261362	1.300000
-1.373268	1.392899	1.316667
-1.368645	1.583168	1.333333
-1.363896	1.583168	1.350000
-0.877678	1.407152	1.366667
-1.033417	1.465824	1.383333
-0.707817	1.538810	1.400000
-0.863556	1.597482	1.416667
-1.179785	1.714824	1.433333
-0.533078	1.480139	1.450000
-0.849434	1.787870	1.466667
-0.523833	1.860976	1.483333
-0.679573	1.919646	1.500000
-0.353972	1.992813	1.516667
-0.028244	1.875475	1.533333
-0.344472	1.992813	1.550000
-0.339722	1.992813	1.566667
0.146367	2.007373	1.583333
-0.009372	2.066041	1.600000
0.155867	2.007373	1.616667
0.000000	2.256666	1.633333
0.646835	1.831367	1.650000
0.330223	2.520758	1.666667
1.137163	2.609094	1.683333
1.623125	2.815006	1.700000
1.788108	3.138482	1.716667
2.273813	3.727485	1.733333
2.920135	4.067212	1.750000
3.084860	4.775189	1.766667
4.212392	5.324245	1.783333
4.858712	5.666132	1.800000
5.504903	6.201018	1.816667
6.472073	6.619578	1.833333
6.957773	7.215021	1.850000
7.443344	8.004638	1.866667
8.410640	8.232862	1.883333
9.056828	8.772537	1.900000
9.863505	9.254542	1.916667
10.509692	9.796133	1.933333
11.316497	10.085712	1.950000
11.962683	10.628983	1.966667
12.769357	11.114596	1.983333
13.255183	11.523397	2.000000
13.741008	11.932736	2.016667
14.387192	12.479360	2.033333
15.354353	12.909732	2.050000
16.000535	13.458275	2.066667
16.646716	14.007775	2.083333
17.453518	14.303337	2.100000
17.939209	14.913111	2.116667
18.746009	15.209942	2.133333
19.392189	15.762802	2.150000
20.038499	16.119490	2.166667
20.684677	16.674027	2.183333
21.330855	17.229523	2.200000
22.137653	17.529619	2.216667
22.623340	18.145370	2.233333
23.269516	18.703501	2.250000
24.076313	19.005592	2.266667
24.722488	19.565405	2.283333
25.529151	20.067614	2.300000
26.175457	20.430263	2.316667
26.661274	20.852013	2.333333
27.307447	21.415184	2.350000
27.793129	22.037864	2.366667
28.599789	22.544399	2.383333
29.566938	22.993355	2.400000
30.052618	23.618905	2.416667
31.019900	23.869171	2.433333
31.345225	24.354136	2.450000
32.152017	24.664033	2.466667
32.958674	25.175633	2.483333
33.444486	25.603863	2.500000
34.251142	26.117148	2.516667
34.897443	26.488115	2.533333
35.543744	26.859625	2.550000
36.189909	27.433841	2.566667
36.515095	28.126045	2.583333
37.482237	28.585149	2.600000
37.968046	29.017878	2.616667
38.774562	29.740290	2.633333
39.581349	30.057451	2.650000
40.227646	30.433661	2.666667
40.873671	31.217877	2.683333
41.680456	31.537037	2.700000
42.166263	31.973729	2.716667
42.651933	32.615313	2.733333
43.619070	33.082393	2.750000
44.425854	33.404100	2.766667
44.911659	33.843316	2.783333
45.557816	34.429776	2.800000
46.204109	34.811776	2.816667
46.850265	35.399918	2.833333
47.496420	35.989019	2.850000
47.982085	36.637543	2.866667
48.788728	37.170097	2.883333
49.755997	37.438613	2.900000
50.562916	37.559474	2.916667
51.048717	38.004281	2.933333
51.695146	38.184212	2.950000
52.341437	38.571472	2.966667
52.666609	39.283492	2.983333
53.633738	39.762680	3.000000

53.958909	40.476606	3.016667
54.926176	40.749696	3.033333
55.572324	41.348421	3.050000
56.057983	42.006539	3.066667
57.025248	42.281640	3.083333
57.510905	42.941437	3.100000
58.157192	43.334668	3.116667
58.642708	44.205470	3.133333
59.449342	44.751297	3.150000
60.577094	44.971454	3.166667
60.902400	45.484230	3.183333
61.548684	45.880722	3.200000
62.194826	46.488101	3.216667
62.840968	47.096440	3.233333
63.647740	47.436523	3.250000
64.454370	47.988152	3.266667
64.779674	48.504698	3.283333
65.586302	49.058012	3.300000
66.393072	49.400646	3.316667
66.878864	49.860603	3.333333
67.525002	50.474718	3.350000
68.171140	51.089794	3.366667
68.817419	51.493354	3.383333
69.624044	52.051741	3.400000
70.430669	52.611094	3.416667
70.755969	53.133387	3.433333
71.562735	53.481119	3.450000
72.369215	54.256433	3.466667
72.855003	54.722342	3.483333
73.822257	55.013723	3.500000
74.147411	55.753212	3.516667
74.793543	56.376948	3.533333
75.760796	56.670341	3.550000
76.246437	57.354113	3.566667
77.053200	57.707130	3.583333
77.699474	58.119036	3.600000
78.185114	58.805208	3.616667
78.831242	59.434003	3.633333
79.477370	60.063758	3.650000
79.962863	60.968952	3.666667
80.769333	61.758991	3.683333
81.415604	62.175418	3.700000
82.222218	62.750940	3.716667
82.868342	63.385742	3.733333
83.674955	63.963197	3.750000
84.000100	64.716531	3.766667
84.806565	65.513783	3.783333
85.452687	66.152667	3.800000
86.259150	66.952623	3.816667
87.065906	67.316739	3.833333
87.551536	68.016799	3.850000
88.197655	68.659532	3.866667
88.683138	69.580856	3.883333
89.329255	70.225745	3.900000
90.135567	71.253152	3.916667
90.781535	72.120680	3.933333
91.427502	72.989702	3.950000
92.073617	73.639390	3.966667
92.719582	74.511105	3.983333
93.365547	75.384315	4.000000
94.011510	76.259019	4.016667
94.817962	77.076978	4.033333
95.624561	77.674191	4.050000
96.110033	78.611325	4.066667
96.916631	79.210707	4.083333
97.402101	80.150527	4.100000
98.048208	80.810299	4.116667
98.854654	81.636368	4.133333
99.500760	82.298306	4.150000
99.986377	83.019415	4.166667
100.471692	84.190177	4.183333
101.438473	85.188477	4.200000
102.084425	86.080242	4.216667
102.730225	87.198886	4.233333
103.215837	87.926445	4.250000
104.022124	88.990485	4.266667
104.828409	90.056680	4.283333
105.313867	91.014689	4.300000
106.280790	91.799687	4.316667
106.766551	92.306310	4.333333
107.572984	93.151885	4.350000
108.058438	94.115274	4.366667
108.864869	94.963850	4.383333
109.350321	95.930223	4.400000
109.996261	96.839941	4.416667
110.481558	98.038223	4.433333
111.287677	99.351722	4.450000
112.094103	100.208691	4.466667
112.900527	101.067166	4.483333
113.546462	101.985262	4.500000
114.032061	102.732439	4.516667
114.838482	103.595120	4.533333
115.323770	104.806632	4.550000
115.969546	105.962184	4.566667
116.936608	106.540099	4.583333
117.422047	107.525269	4.600000
118.228619	108.163454	4.616667
118.553568	109.209395	4.633333
119.199338	110.373555	4.650000
120.005595	111.481793	4.666667
120.651362	112.650254	4.683333
121.457772	113.528845	4.700000
122.103537	114.701252	4.716667
122.588968	115.699248	4.733333
123.555707	116.759502	4.750000
124.201782	117.467543	4.766667
124.847856	118.176549	4.783333
125.493772	119.122195	4.800000
125.979199	120.127366	4.816667
126.785601	121.017980	4.833333
127.431356	122.204740	4.850000
128.077268	123.156674	4.866667
128.723020	124.347377	4.883333
129.529418	125.244600	4.900000
130.175486	125.963464	4.916667
130.660745	127.217549	4.933333
131.306492	128.415784	4.950000
132.112726	129.558185	4.966667
132.919119	130.463522	4.983333
133.404534	131.486312	5.000000
134.210925	132.394656	5.016667
134.856987	133.122417	5.033333
135.502887	134.091435	5.050000
136.148786	135.061952	5.066667
136.955173	135.976017	5.083333
137.600909	137.190776	5.100000
138.086478	137.982496	5.116667
138.892862	138.901074	5.133333
139.538757	139.879091	5.150000
140.184650	140.858608	5.166667
140.830705	141.596962	5.183333
141.476596	142.579182	5.200000
142.122324	143.806154	5.216667
142.928865	144.490211	5.233333
143.574917	145.233145	5.250000
144.220968	145.977046	5.266667
144.706203	147.268393	5.283333
145.351924	148.503990	5.300000
146.318950	149.135965	5.316667
146.964834	150.129896	5.333333
147.289739	151.241079	5.350000
148.095945	152.425991	5.366667
148.741825	153.424714	5.383333
149.548359	154.120622	5.400000
150.033749	155.179911	5.416667
150.679461	156.429885	5.433333
151.646149	157.566320	5.450000
152.292190	158.325152	5.466667
152.938064	159.332888	5.483333
153.584104	160.093891	5.500000
154.390632	160.798032	5.516667
155.036670	161.560973	5.533333
155.361564	162.689467	5.550000
156.167756	163.895299	5.566667
156.813624	164.911448	5.583333
157.619981	165.871293	5.600000
158.266015	166.640258	5.616667
158.590736	168.026694	5.633333
159.557578	168.933264	5.650000
159.882296	170.323628	5.666667
160.527822	171.852118	5.683333
161.654980	172.958253	5.700000
162.301009	173.735403	5.716667
162.947037	174.513521	5.733333
163.432576	175.350365	5.750000
164.238922	176.325577	5.766667
165.045437	177.049086	5.783333
165.370655	177.693414	5.800000
165.856022	178.787739	5.816667
166.501535	180.333846	5.833333
167.307706	181.570691	5.850000
167.793069	182.670393	5.866667
168.599237	183.911200	5.883333
169.245086	184.956480	5.900000
170.051423	185.945554	5.916667
170.697099	187.249844	5.933333
171.503605	187.985938	5.950000
171.988962	189.094931	5.966667
172.634634	190.404618	5.983333
173.441138	191.144347	6.000000
174.086980	192.200155	6.016667
174.732821	193.257467	6.033333
175.379007	193.800304	6.050000
176.024674	195.118284	6.066667
176.670685	195.921256	6.083333
177.316523	196.983987	6.100000
178.122675	198.249718	6.116667
178.608021	199.373401	6.133333
179.093019	201.018228	6.150000
179.899166	202.290438	6.166667
180.544823	203.622439	6.183333
181.672119	204.522818	6.200000
182.157635	205.394024	6.216667
182.482487	206.585199	6.233333
183.128139	207.924401	6.250000
183.934279	209.208163	6.266667
184.740241	210.756617	6.283333
185.546905	211.256606	6.300000
186.032240	212.398263	6.316667
186.517397	213.804768	6.333333
187.323707	214.834568	6.350000
187.808685	216.509085	6.366667
188.935969	217.427383	6.383333
189.421475	218.312768	6.400000
190.067292	219.406463	6.416667
190.552619	220.559207	6.433333
191.198256	221.921456	6.450000
192.004380	223.228332	6.466667
192.489704	224.386166	6.483333
193.295647	225.963630	6.500000
194.101945	227.010029	6.516667
194.587266	228.172959	6.533333
195.393383	229.489946	6.550000
195.878701	230.656172	6.566667
196.524148	232.302898	6.583333
197.330440	233.357744	6.600000
197.815395	235.066980	6.616667
198.621505	236.394787	6.633333
199.267305	237.512529	6.650000
200.233901	238.786858	6.666667
200.558904	239.752531	6.683333
201.204520	241.145382	6.700000
202.010805	242.212002	6.716667
202.495930	243.666256	6.733333
203.141179	245.608601	6.750000
204.107583	247.167731	6.766667
204.592886	248.357026	6.783333
205.399165	249.432997	6.800000
205.884466	250.625294	6.816667
206.529704	252.581997	6.833333
207.496468	253.606009	6.850000
207.821277	254.861088	6.866667
208.787854	256.162581	6.883333
209.433821	257.031457	6.900000
209.918931	258.508696	6.916667
210.885505	259.815998	6.933333
211.210308	261.079153	6.950000
212.176879	262.390443	6.966667
212.662354	263.323195	6.983333
213.307946	264.752799	7.000000
213.953536	266.184563	7.016667
214.438637	267.675812	7.033333
215.405015	269.275023	7.050000
216.050973	270.157436	7.066667
216.375395	271.990528	7.083333
217.341954	273.318489	7.100000
217.987723	274.484088	7.116667
218.633116	276.210118	7.133333
219.278882	277.379327	7.150000
220.084948	278.772914	7.166667
220.730712	279.945443	7.183333
221.376287	281.400277	7.200000
222.022237	282.295024	7.216667
222.667621	284.034921	7.233333
223.313381	285.214077	7.250000
224.119816	286.055456	7.266667
224.604897	287.576915	7.283333
225.410952	288.986070	7.300000
226.056707	290.171563	7.316667
226.541784	291.699133	7.333333
227.347835	293.114437	7.350000
228.153885	294.531916	7.366667
228.478659	295.838734	7.383333
229.284515	297.544964	7.400000
229.929881	299.311323	7.416667
230.414949	300.852183	7.433333
231.381288	302.509655	7.450000
232.027032	303.711711	7.466667
232.993943	304.514408	7.483333
233.318902	305.546699	7.500000
233.964643	306.752688	7.516667
234.610191	308.247579	7.533333
235.255738	309.744634	7.550000
236.061771	311.186727	7.566667
236.547020	312.456773	7.583333
237.353050	313.902849	7.600000
238.159273	315.061988	7.616667
238.805201	315.990394	7.633333
239.290446	317.266464	7.650000
239.775301	319.123986	7.666667
240.741813	320.522763	7.683333
240.905688	322.499880	7.700000
241.871807	324.485809	7.716667
242.677826	325.949260	7.733333
243.323355	327.471940	7.750000
243.969079	328.704463	7.766667
244.614410	330.523793	7.783333
245.099447	332.109997	7.800000
245.905262	333.877754	7.816667
246.711272	335.354599	7.833333
247.517478	336.539461	7.850000
248.323880	337.431441	7.866667
248.809305	338.438406	7.883333
249.455019	339.684221	7.900000
249.940245	340.988536	7.916667
250.585562	342.828493	7.933333
251.391762	344.022458	7.950000
252.037472	345.274916	7.966667
252.682983	346.825429	7.983333
253.489179	348.024252	8.000000
253.653024	350.046850	8.016667
254.297932	352.497033	8.033333
255.264013	354.539874	8.050000
256.070203	355.747458	8.066667
256.876192	357.255487	8.083333
257.682781	357.868041	8.100000
258.007705	358.951219	8.116667
258.653203	360.520881	8.133333
259.138011	362.449710	8.150000
260.265171	363.552934	8.166667
261.071555	364.470756	8.183333
261.396677	365.259304	8.200000
262.042169	366.838026	8.216667
262.526969	368.777377	8.233333
263.172458	370.360783	8.250000
263.978230	372.191881	8.266667
264.463228	373.836825	8.283333
265.429485	375.616571	8.300000
265.914683	376.962698	8.316667
266.559960	378.861164	8.333333
267.205440	380.458297	8.350000
267.850714	382.362227	8.366667
268.817166	383.850465	8.383333
269.623538	384.787055	8.400000
270.269422	385.781416	8.416667
270.915509	386.471047	8.433333
271.400903	387.523897	8.450000
271.885887	389.190140	8.466667
272.691844	390.745013	8.483333
273.176619	392.722593	8.500000
273.982574	394.282177	8.516667
274.627833	396.208470	8.533333
275.273296	397.829502	8.550000
275.918551	399.761263	8.566667
276.403317	401.752678	8.583333
277.530239	403.210807	8.600000
277.854721	404.954642	8.616667
278.660664	406.530545	8.633333
279.627510	407.431196	8.650000
280.112684	408.813473	8.666667
280.758344	410.140579	8.683333
281.243516	411.525869	8.700000
281.567572	413.904102	8.716667
282.854762	415.634106	8.733333
283.179442	417.082057	8.750000
283.985375	418.674313	8.766667
284.791306	420.268754	8.783333
285.597656	421.238556	8.800000
286.082819	422.636205	8.816667
286.567771	424.349334	8.833333
287.373697	425.951414	8.850000
288.019345	427.297583	8.866667
288.504292	429.016849	8.883333
289.470914	430.253176	8.900000
289.955859	431.976420	8.916667
290.922266	433.532117	8.933333
291.568120	434.570471	8.950000
291.732085	436.412616	8.966667
292.376876	439.038459	8.983333
293.342851	441.238412	9.000000
294.148975	442.544689	9.016667
294.794611	443.909018	9.033333
295.118843	446.025075	9.050000
296.085452	447.280007	9.066667
296.730870	448.968760	9.083333
297.215799	450.716178	9.100000
298.182189	452.296300	9.116667
298.506842	453.784186	9.133333
299.633933	454.991204	9.150000
300.119501	455.783923	9.166667
300.765127	457.162807	9.183333
301.250049	458.921089	9.200000
301.573834	461.703666	9.216667
302.860759	463.829959	9.233333
303.667515	464.192854	9.250000
303.991943	466.016593	9.266667
304.958754	466.970328	9.283333
304.962203	468.910494	9.300000
305.767439	471.542712	9.316667
306.733595	473.474315	9.333333
307.379208	474.871966	9.350000
308.185526	475.889700	9.366667
308.670431	477.671824	9.383333
309.315823	479.399745	9.400000
309.960995	481.455969	9.416667
310.606165	483.515142	9.433333
311.572746	484.810721	9.450000
312.058083	485.949696	9.466667
312.542761	488.071966	9.483333
313.348412	490.084535	9.500000
313.994013	491.499769	9.516667
315.121297	492.419096	9.533333
315.446361	493.292229	9.550000
316.091960	494.711131	9.566667
316.737338	496.460847	9.583333
317.222447	497.939364	9.600000
317.867379	500.353141	9.616667
318.512752	502.109733	9.633333
319.318167	504.473991	9.650000
320.124246	505.848155	9.666667
320.769614	507.611648	9.683333
321.415203	509.045401	9.700000
321.739371	511.257603	9.716667
322.544776	513.636831	9.733333
323.671601	515.241129	9.750000
323.835945	516.517952	9.766667
324.641568	518.572068	9.783333
325.447637	519.960853	9.800000
325.932506	521.797938	9.816667
326.738573	523.190077	9.833333
327.544414	524.918827	9.850000
328.190216	526.035110	9.866667
328.835792	527.487991	9.883333
329.481592	528.606477	9.900000
329.805741	530.846852	9.916667
330.450863	532.977895	9.933333
331.256018	535.730161	9.950000
332.222563	537.080523	9.966667
332.707870	538.262906	9.983333
333.513699	540.010256	10.000000
333.999005	541.195070	10.016667
334.644344	543.002152	10.033333
335.289454	545.150546	10.050000
335.934790	546.962342	10.066667
336.740384	549.060174	10.083333
337.706919	550.424336	10.100000
338.031732	551.673691	10.116667
338.677291	553.152687	10.133333
339.322620	554.974310	10.150000
340.128435	556.742097	10.166667
340.774219	557.884500	10.183333
341.580032	559.655950	10.200000
342.065097	561.199164	10.216667
342.549932	563.086606	10.233333
343.034306	565.662537	10.250000
344.000370	567.730722	10.266667
344.645457	569.913816	10.283333
345.451260	571.699469	10.300000
346.097036	572.853828	10.316667
346.742118	575.044128	10.333333
347.226942	576.947848	10.350000
347.872253	578.797813	10.366667
348.517329	580.996134	10.383333
349.483379	583.085610	10.400000
349.968429	584.651788	10.416667
351.095428	585.995931	10.433333
351.420454	586.926109	10.450000
352.065990	588.440365	10.466667
352.550803	590.360045	10.483333
353.035148	592.978841	10.500000
353.679744	595.894658	10.516667
354.645546	598.354093	10.533333
355.451561	599.823435	10.550000
356.257575	601.294314	10.566667
356.742613	602.878355	10.583333
357.548625	604.352297	10.600000
358.355106	605.125798	10.616667
358.519168	606.825390	10.633333
359.324706	609.006487	10.650000
359.969755	611.246334	10.666667
360.775525	613.080924	10.683333
361.742254	614.156510	10.700000
362.067033	615.456124	10.716667
362.873273	616.589452	10.733333
363.197577	618.597887	10.750000
363.681893	621.260567	10.766667
364.968880	623.294056	10.783333
365.132691	625.365775	10.800000
365.938213	627.571952	10.816667
366.743732	629.781106	10.833333
367.067788	632.160286	10.850000
368.194517	633.907628	10.866667
368.679534	635.523176	10.883333
369.485285	637.385908	10.900000
370.131266	638.234617	10.916667
370.455075	640.982834	10.933333
371.421069	643.154204	10.950000
372.227055	644.667286	10.966667
372.712065	646.293146	10.983333
373.678777	647.394714	11.000000
374.003298	649.078928	11.016667
374.969767	650.542242	11.033333
375.455015	651.814081	11.050000
375.939296	654.527430	11.066667
376.584546	656.467702	11.083333
377.229794	658.410157	11.100000
378.035044	661.022015	11.116667
378.841260	662.190526	11.133333
379.325774	664.557167	11.150000
380.131989	665.728390	11.166667
380.616743	667.736952	11.183333
381.422470	669.636651	11.200000
382.067708	671.594060	11.216667
382.712945	673.553654	11.233333
383.518911	675.095833	11.250000
384.003658	677.114930	11.266667
384.809622	678.660480	11.283333
385.615829	679.842560	11.300000
385.618867	682.398872	11.316667
386.745311	684.569920	11.333333
387.069319	687.021187	11.350000
388.195759	689.198229	11.366667
388.841720	690.076748	11.383333
389.165969	692.167974	11.400000
389.971431	694.462708	11.416667
390.616651	696.447825	11.433333
391.261622	698.803483	11.450000
392.228060	700.313858	11.466667
392.712788	702.360924	11.483333
393.518736	703.930059	11.500000
394.003709	705.611450	11.516667
394.488433	707.664327	11.533333
395.293882	709.979086	11.550000
395.778355	712.407484	11.566667
396.744037	715.044159	11.583333
397.389740	716.308651	11.600000
397.874456	718.373144	11.616667
398.840632	720.273931	11.633333
399.165108	722.025473	11.650000
400.130782	724.676295	11.666667
400.776479	725.947903	11.683333
401.421926	727.594062	11.700000
402.388346	729.131246	11.716667
402.873805	730.087454	11.733333
403.519249	731.737609	11.750000
404.164943	733.014647	11.766667
404.649647	735.097735	11.783333
405.294585	737.503140	11.800000
405.779034	739.966717	11.816667
406.423463	743.130614	11.833333
407.550360	744.626780	11.850000
408.035056	746.722207	11.866667
409.001717	747.899685	11.883333
409.165689	749.731512	11.900000
409.970595	752.856068	11.916667
410.936746	754.794788	11.933333
411.421688	756.522353	11.950000
412.227603	758.141183	11.966667
413.194766	758.568660	11.983333
413.358732	760.410142	12.000000
414.164899	761.652942	12.016667
414.328354	764.257260	12.033333
415.454728	766.533958	12.050000
416.099894	768.597982	12.066667
416.745315	770.282961	12.083333
417.390223	772.732601	12.100000
418.035642	774.421243	12.116667
418.680547	776.875982	12.133333
419.486449	778.513252	12.150000
419.810377	781.083150	12.166667
420.936737	783.380906	12.183333
421.421919	784.750277	12.200000
422.067073	786.833668	12.216667
422.712483	788.534840	12.233333
423.518120	790.567273	12.250000
424.163786	791.886805	12.266667
424.648448	794.032859	12.283333
425.454082	796.071172	12.300000
426.260231	797.339690	12.316667
426.745148	799.105314	12.333333
427.711783	800.321130	12.350000
427.875724	802.199372	12.366667
428.359600	805.518054	12.383333
429.164966	807.956190	12.400000
430.131077	809.954294	12.416667
430.775953	812.452889	12.433333
431.581834	814.121822	12.450000
432.067002	815.512956	12.466667
432.872620	817.574059	12.483333
433.196777	819.801935	12.500000
434.001870	822.647826	12.516667
434.807484	824.716258	12.533333
435.292384	826.505602	12.550000
436.097995	828.578078	12.566667
436.904130	829.869610	12.583333
437.389290	831.271750	12.600000
437.873661	833.851133	12.616667
438.679267	835.931337	12.633333
439.324122	838.461453	12.650000
440.290474	840.098383	12.666667
440.614879	841.955902	12.683333
441.581230	843.595931	12.700000
442.066384	845.007617	12.716667
442.711231	847.548837	12.733333
443.516827	849.643401	12.750000
444.001449	851.849602	12.766667
444.646820	853.607708	12.783333
445.291660	856.159145	12.800000
446.097516	857.866235	12.816667
446.742353	860.422791	12.833333
447.548206	862.133579	12.850000
447.872333	864.407202	12.866667
448.838404	866.464389	12.883333
449.323547	867.891730	12.900000
450.289616	869.952629	12.916667
450.614004	871.835625	12.933333
451.258829	874.408809	12.950000
452.225161	876.077001	12.966667
452.549278	878.364799	12.983333
453.354853	880.490995	13.000000
454.321181	882.164456	13.016667
454.806049	884.003197	13.033333
455.451134	886.189867	13.050000
456.096754	887.576128	13.066667
456.420325	890.678882	13.083333
457.225353	893.621867	13.100000
458.191404	895.708993	13.116667
458.836751	897.504483	13.133333
459.321880	898.952883	13.150000
460.127441	901.100073	13.166667
460.612298	902.954660	13.183333
461.417315	905.914268	13.200000
462.062384	908.122914	13.216667
462.546966	910.388215	13.233333
463.513006	912.492353	13.250000
464.319373	913.436377	13.266667
464.643737	915.355783	13.283333
465.609773	917.465128	13.300000
466.094621	919.333457	13.316667
466.739954	921.148899	13.333333
467.224527	923.427375	13.350000
467.708826	926.115545	13.366667
468.674308	929.051537	13.383333
469.159150	930.929299	13.400000
469.964415	933.517239	13.416667
470.930439	935.644696	13.433333
471.255065	937.172922	13.450000
472.381573	939.249760	13.466667
472.706197	940.780434	13.483333
473.029721	943.953306	13.500000
474.155949	946.447638	13.516667
474.801268	948.285459	13.533333
475.446860	949.713396	13.550000
476.413425	951.033774	13.566667
476.416520	953.504661	13.583333
477.542740	956.010252	13.600000
477.706594	958.018817	13.616667
478.671772	961.410208	13.633333
479.317082	963.260302	13.650000
480.122322	965.885548	13.666667
480.928394	967.270878	13.683333
481.573978	968.711416	13.700000
482.058520	971.036663	13.716667
482.864311	972.840578	13.733333
482.866834	976.163432	13.750000
484.152966	979.472914	13.766667
484.798824	980.504989	13.783333
485.604331	982.733267	13.800000
486.571440	983.241929	13.816667
486.735558	984.855507	13.833333
487.219810	987.613920	13.850000
487.864546	990.321185	13.866667
488.669485	993.395668	13.883333
489.474983	995.636488	13.900000
490.120555	997.095550	13.916667
491.247304	998.812642	13.933333
491.733232	999.069744	13.950000
491.736576	1001.167168	13.966667
492.541225	1004.676025	13.983333
493.025180	1007.877187	14.000000
493.990308	1011.341309	14.016667
494.956563	1013.123942	14.033333
495.441076	1015.491968	14.050000
496.247126	1016.909893	14.066667
496.732203	1018.436795	14.083333
497.216429	1021.232678	14.100000
498.182679	1023.023402	14.116667
498.667185	1025.400955	14.133333
499.472663	1027.672803	14.150000
500.278707	1029.098709	14.166667
500.924549	1030.155318	14.183333
501.409335	1032.115322	14.200000
501.893551	1034.926582	14.216667
502.859793	1036.728523	14.233333
503.665834	1038.160432	14.250000
503.829358	1040.660451	14.266667
504.634540	1043.373329	14.283333
504.797490	1046.731361	14.300000
506.083553	1050.143498	14.316667
506.889588	1051.583846	14.333333
507.374076	1053.988496	14.350000
508.340022	1056.233872	14.366667
508.503822	1058.321976	14.383333
509.308416	1061.912176	14.400000
510.114446	1063.359990	14.416667
510.598927	1065.775610	14.433333
511.564577	1068.462178	14.450000
512.370603	1069.914242	14.466667
512.855657	1071.474823	14.483333
513.661394	1073.359754	14.500000
513.985961	1074.976296	14.516667
514.791117	1077.726992	14.533333
515.115103	1080.209905	14.550000
515.919966	1083.398519	14.566667
516.725407	1085.725431	14.583333
517.370360	1088.108251	14.600000
518.336574	1089.952492	14.616667
518.661424	1091.145662	14.633333
519.145306	1094.455335	14.650000
519.950449	1097.227065	14.666667
520.273840	1100.597632	14.683333
521.560436	1103.214920	14.700000
522.205962	1104.742532	14.716667
522.851195	1106.707052	14.733333
523.496720	1108.236904	14.750000
524.142244	1109.767756	14.766667
524.466210	1112.280210	14.783333
525.431240	1115.892271	14.800000
526.076761	1117.427820	14.816667
526.881886	1120.224518	14.833333
527.205846	1122.746442	14.850000
528.010968	1125.548707	14.866667
528.495411	1128.021842	14.883333
529.299940	1131.708898	14.900000
530.105351	1134.080539	14.916667
530.911350	1135.573746	14.933333
531.556862	1137.121435	14.950000
532.041298	1139.605217	14.966667
532.686218	1142.037738	14.983333
533.169763	1145.850955	15.000000
534.296432	1147.686592	15.016667
534.780861	1150.179893	15.033333
535.586854	1151.683092	15.050000
535.910795	1154.233464	15.066667
536.716488	1156.182475	15.083333
537.200615	1159.127213	15.100000
538.005711	1161.968192	15.116667
538.489536	1165.363517	15.133333
539.616195	1167.214194	15.150000
539.940127	1169.778418	15.166667
540.906000	1172.131538	15.183333
541.069443	1174.753445	15.200000
542.195799	1177.057719	15.216667
542.840995	1179.077377	15.233333
543.325405	1181.598907	15.250000
543.809514	1184.570089	15.266667
544.775378	1186.936593	15.283333
545.259483	1189.913327	15.300000
546.386731	1190.885771	15.316667
546.711250	1192.573652	15.333333
547.195351	1195.556394	15.350000
547.679451	1198.542102	15.366667
548.483614	1202.774556	15.383333
549.128194	1205.714305	15.400000
550.093743	1208.550723	15.416667
550.738924	1210.593784	15.433333
551.544287	1213.036872	15.450000
552.029283	1214.684549	15.466667
552.834340	1217.583640	15.483333
553.319030	1219.686618	15.500000
554.124084	1222.590876	15.516667
554.769561	1224.191128	15.533333
555.253945	1226.752634	15.550000
556.220088	1228.703136	15.566667
556.704164	1231.723031	15.583333
557.349333	1233.783391	15.600000
557.993891	1236.755358	15.616667
558.639058	1238.819418	15.633333
559.444098	1241.743514	15.650000
559.767986	1244.373444	15.666667
560.572105	1248.673166	15.683333
561.859820	1249.619875	15.700000
562.023524	1251.852451	15.716667
562.989960	1253.364157	15.733333
563.153049	1256.515195	15.750000
563.958077	1259.457384	15.766667
564.763718	1261.485178	15.783333
565.569358	1263.514539	15.800000
566.214204	1266.057666	15.816667
566.859356	1268.143361	15.833333
567.022435	1271.309234	15.850000
568.148424	1274.160756	15.866667
568.311498	1277.332545	15.883333
569.115894	1281.218550	15.900000
570.242186	1283.618229	15.916667
570.566359	1285.822215	15.933333
571.532162	1288.278849	15.950000
572.177304	1290.380578	15.966667
572.661649	1292.999735	15.983333
573.467273	1295.052068	16.000000
573.951304	1298.139073	16.016667
574.916790	1301.070760	16.033333
575.401751	1302.769988	16.050000
576.046262	1305.811945	16.066667
576.852192	1307.408414	16.083333
577.336215	1310.507838	16.100000
577.981034	1313.091552	16.116667
578.786336	1315.624779	16.133333
579.270354	1318.732320	16.150000
580.236764	1320.283621	16.166667
580.560293	1323.448554	16.183333
581.526075	1325.938031	16.200000
582.010713	1328.119615	16.216667
582.494408	1331.708073	16.233333
583.299699	1334.257250	16.250000
584.104990	1336.808665	16.266667
584.910593	1338.892720	16.283333
585.395225	1341.083527	16.300000
585.718425	1344.739219	16.316667
587.004849	1347.612581	16.333333
587.329307	1349.391039	16.350000
587.973788	1352.479414	16.366667
588.939553	1354.993901	16.383333
589.102890	1357.773249	16.400000
590.068335	1360.764754	16.416667
590.391838	1363.969288	16.433333
591.356645	1367.913812	16.450000
592.001748	1370.072391	16.466667
592.646215	1373.180938	16.483333
593.451165	1376.240043	16.500000
594.096264	1378.404500	16.516667
594.741044	1381.045835	16.533333
595.386141	1383.213701	16.550000
596.030599	1386.335158	16.566667
596.675056	1389.459616	16.583333
597.480634	1391.580977	16.600000
597.964921	1394.285776	16.616667
599.091147	1396.783360	16.633333
599.255102	1398.641618	16.650000
600.220841	1401.195306	16.666667
600.705443	1403.429756	16.683333
601.189082	1407.102224	16.700000
601.833525	1410.246904	16.716667
602.638451	1413.342304	16.733333
603.443052	1416.920947	16.750000
604.087811	1419.594447	16.766667
604.733212	1421.308349	16.783333
605.538775	1423.452143	16.800000
606.022722	1426.664997	16.816667
606.827637	1429.776404	16.833333
607.633520	1431.443845	16.850000
608.118108	1433.699216	16.866667
608.762857	1436.386814	16.883333
609.246796	1439.612101	16.900000
610.051378	1443.219831	16.916667
610.374828	1446.503659	16.933333
611.018595	1450.655597	16.950000
612.144140	1454.170858	16.966667
612.628718	1456.441564	16.983333
613.594099	1459.529377	17.000000
614.239485	1461.265456	17.016667
614.724060	1463.541108	17.033333
615.368466	1466.740012	17.050000
616.173682	1469.402539	17.066667
616.818738	1471.631699	17.083333
617.464120	1473.374526	17.100000
618.108847	1476.094684	17.116667
618.753573	1478.817063	17.133333
619.398297	1481.541663	17.150000
619.882535	1484.320464	17.166667
620.687084	1487.976989	17.183333
621.171319	1490.760931	17.200000
622.136348	1494.372401	17.216667
622.781393	1496.618605	17.233333
623.105138	1499.461465	17.250000
624.230646	1503.030432	17.266667
624.876346	1504.298474	17.283333
625.360242	1507.588060	17.300000
626.004950	1510.335980	17.316667
626.649327	1513.579265	17.333333
627.454517	1516.280150	17.350000
627.938736	1519.086943	17.366667
628.743592	1522.286588	17.383333
629.388624	1524.551705	17.400000
630.194139	1526.766580	17.416667
630.517868	1529.633655	17.433333
631.322717	1532.843268	17.450000
631.806263	1536.655594	17.466667
632.771592	1539.819932	17.483333
633.255466	1543.142519	17.500000
633.899488	1546.913861	17.516667
634.704660	1549.641532	17.533333
635.509831	1552.371450	17.550000
636.154515	1555.155295	17.566667
636.639048	1557.494086	17.583333
637.283395	1560.781309	17.600000
638.248709	1563.968262	17.616667
638.572753	1566.364544	17.633333
639.698884	1569.004644	17.650000
640.184081	1570.351361	17.666667
640.829092	1572.648755	17.683333
641.313617	1574.999299	17.700000
641.957953	1578.302960	17.716667
642.601950	1582.111723	17.733333
643.407103	1584.867763	17.750000
643.730128	1588.786476	17.766667
645.016730	1591.393141	17.783333
645.341100	1593.303922	17.800000
645.985762	1596.120427	17.816667
646.630424	1598.939157	17.833333
647.113584	1603.325842	17.850000
647.757564	1607.160624	17.866667
648.562026	1610.947880	17.883333
649.688472	1613.117626	17.900000
650.173658	1614.481961	17.916667
650.818988	1616.301959	17.933333
651.303154	1619.188063	17.950000
652.429936	1620.856377	17.966667
652.432306	1624.407902	17.983333
653.558065	1627.602752	18.000000
653.881740	1630.549083	18.016667
654.847011	1633.800970	18.033333
655.170684	1636.752065	18.050000
655.975125	1640.570518	18.066667
656.780247	1643.372822	18.083333
657.264057	1646.790336	18.100000
657.747522	1650.721695	18.116667
658.713123	1653.480543	18.133333
659.357412	1656.855809	18.150000
660.162525	1659.670786	18.166667
660.807496	1662.026857	18.183333
661.291638	1664.948381	18.200000
662.257576	1667.205469	18.216667
663.063715	1668.488820	18.233333
663.548542	1670.388557	18.250000
664.033024	1672.803011	18.266667
664.516472	1676.761427	18.283333
665.481369	1680.570303	18.300000
665.965847	1682.991222	18.316667
666.610117	1686.393322	18.333333
667.736529	1688.613507	18.350000
667.899689	1691.657977	18.366667
668.544300	1694.551354	18.383333
669.349047	1697.912755	18.400000
669.671993	1701.947707	18.416667
670.798052	1704.695729	18.433333
671.120646	1709.255766	18.450000
672.246701	1712.009443	18.466667
672.892344	1713.361645	18.483333
673.536944	1716.271756	18.500000
674.182239	1718.145093	18.516667
674.505519	1721.680710	18.533333
675.470735	1725.015472	18.550000
675.954844	1727.985446	18.566667
676.437905	1732.520926	18.583333
677.564297	1734.771226	18.600000
678.208886	1737.697690	18.616667
678.854173	1739.582051	18.633333
679.499459	1741.467425	18.650000
679.983210	1744.972742	18.666667
680.788278	1747.856171	18.683333
681.111191	1751.941503	18.700000
681.915553	1755.878223	18.716667
682.720966	1758.245409	18.733333
683.365191	1761.714524	18.750000
684.170602	1764.085481	18.766667
684.815176	1767.034271	18.783333
685.459749	1769.985292	18.800000
685.943836	1772.989296	18.816667
686.588052	1776.471389	18.833333
687.553588	1779.328013	18.850000
688.198861	1781.233697	18.866667
688.843779	1783.667933	18.883333
689.649888	1784.997413	18.900000
689.973483	1788.063636	18.916667
690.778175	1791.508536	18.933333
691.423089	1793.949334	18.950000
691.906455	1798.030050	18.966667
692.871979	1800.903279	18.983333
693.195567	1803.981260	19.000000
694.160377	1807.919962	19.016667
694.484317	1810.472211	19.033333
695.287927	1815.530709	19.050000
696.253799	1817.885304	19.066667
696.578091	1819.911677	19.083333
697.543248	1823.333854	19.100000
698.188506	1825.261894	19.116667
698.511724	1828.890966	19.133333
699.316034	1832.905047	19.150000
700.121415	1835.321201	19.166667
700.766310	1837.789416	19.183333
701.571689	1840.208733	19.200000
702.056099	1842.730542	19.216667
702.861117	1845.688137	19.233333
703.345525	1848.213360	19.250000
703.828854	1852.347670	19.266667
704.633149	1856.385085	19.283333
705.277676	1859.403150	19.300000
706.403653	1862.272344	19.316667
706.728291	1863.783351	19.333333
707.372094	1867.882565	19.350000
708.016976	1870.371066	19.366667
708.339447	1875.115958	19.383333
709.465055	1878.535941	19.400000
710.270778	1880.441323	19.416667
710.754810	1883.527590	19.433333
711.560169	1885.975497	19.450000
711.883715	1889.116104	19.466667
712.688347	1892.648932	19.483333
713.493340	1895.643625	19.500000
713.977365	1898.741009	19.516667
714.942838	1901.689998	19.533333
715.266739	1904.299810	19.550000
716.071363	1907.845721	19.566667
717.037560	1909.715659	19.583333
717.200610	1912.923772	19.600000
718.166077	1915.883338	19.616667
718.489608	1919.045707	19.633333
719.294223	1922.604263	19.650000
719.938353	1926.215973	19.666667
720.582115	1930.375963	19.683333
721.547939	1932.802709	19.700000
722.032311	1935.381244	19.716667
722.676433	1939.003800	19.733333
723.320920	1942.082667	19.750000
723.965039	1945.710851	19.766667
724.930856	1948.147106	19.783333
725.415589	1950.187264	19.800000
726.060070	1953.274368	19.816667
727.026251	1955.167102	19.833333
727.189280	1958.407863	19.850000
727.832653	1963.148202	19.866667
728.637612	1966.194683	19.883333
729.281348	1970.393277	19.900000
730.408376	1971.694291	19.916667
730.571765	1974.396232	19.933333
731.215497	1978.602763	19.950000
732.020447	1981.660519	19.966667
732.503691	1985.923815	19.983333
733.308268	1989.539053	20.000000
733.952730	1992.654496	20.016667
734.596450	1996.878302	20.033333
735.401392	1999.949168	20.050000
736.206333	2003.022300	20.066667
736.851531	2005.039138	20.083333
737.496357	2007.611371	20.100000
738.141182	2010.185175	20.116667
738.625151	2013.365324	20.133333
739.269230	2017.053439	20.150000
739.912934	2021.300533	20.166667
740.717864	2024.389074	20.183333
741.201080	2028.692757	20.200000
742.166490	2031.736888	20.216667
742.971789	2034.275417	20.233333
743.134780	2037.571886	20.250000
743.778471	2041.838252	20.266667
744.582268	2046.617825	20.283333
745.547295	2050.234075	20.300000
746.192853	2051.714033	20.316667
746.837285	2054.873925	20.333333
747.482467	2056.915706	20.350000
747.966038	2060.689392	20.366667
748.771325	2063.245239	20.383333
749.415376	2066.974610	20.400000
750.059802	2070.145347	20.416667
750.704225	2073.318326	20.433333
751.349024	2075.931212	20.450000
751.832208	2080.283216	20.466667
752.797593	2083.364409	20.483333
753.442011	2086.546736	20.500000
754.086804	2089.167450	20.516667
754.570358	2092.967511	20.533333
755.374876	2096.671820	20.550000
756.019287	2099.863484	20.566667
756.663318	2103.622825	20.583333
757.307725	2106.819341	20.600000
758.112994	2109.402614	20.616667
758.596916	2112.652573	20.633333
759.562286	2115.756864	20.650000
759.886102	2118.493380	20.666667
760.529743	2122.835572	20.683333
761.495107	2125.947045	20.700000
761.979022	2129.208533	20.716667
762.783901	2132.373787	20.733333
763.267812	2135.639736	20.750000
763.750959	2140.046977	20.766667
764.876035	2144.261423	20.783333
765.360323	2146.965109	20.800000
766.165193	2150.142769	20.816667
766.488614	2153.470112	20.833333
767.453581	2157.174670	20.850000
768.258830	2159.787603	20.866667
768.421763	2163.170708	20.883333
769.386342	2167.455852	20.900000
769.870237	2170.745941	20.916667
770.674712	2174.513610	20.933333
771.479570	2177.710458	20.950000
771.963076	2181.581871	20.966667
772.767545	2185.358283	20.983333
773.573168	2187.412626	21.000000
773.896571	2190.765477	21.016667
774.700650	2195.125111	21.033333
775.345787	2197.232994	21.050000
776.150634	2200.445674	21.066667
776.634514	2203.758476	21.083333
777.278489	2207.601762	21.100000
778.243814	2210.772696	21.116667
778.889333	2212.310139	21.133333
779.211950	2216.836399	21.150000
780.016788	2220.062642	21.166667
780.339013	2225.174861	21.183333
781.464036	2229.468233	21.200000
781.626160	2234.058447	21.216667
782.590306	2238.989235	21.233333
783.556006	2241.600707	21.250000
784.040257	2244.360062	21.266667
784.845082	2247.605103	21.283333
785.489813	2250.319164	21.300000
785.973280	2254.248148	21.316667
786.938584	2257.451277	21.333333
787.102254	2259.734042	21.350000
788.548612	2263.378336	21.366667
788.552580	2264.545297	21.383333
789.195739	2269.604970	21.400000
790.321910	2272.185682	21.416667
790.806149	2274.962535	21.433333
790.968246	2279.593429	21.450000
791.933145	2283.399593	21.466667
792.255720	2287.989207	21.483333
793.540401	2293.464667	21.500000
793.864150	2296.301833	21.516667
794.668164	2300.757154	21.533333
795.794322	2303.355799	21.550000
795.957585	2306.247049	21.566667
797.084135	2308.260538	21.583333
797.408273	2310.517478	21.600000
798.052586	2313.856279	21.616667
798.697291	2316.608034	21.633333
799.180724	2320.589063	21.650000
800.144811	2325.608214	21.666667
800.629425	2327.824439	21.683333
801.272542	2332.947669	21.700000
802.077723	2335.661704	21.716667
802.561146	2339.657451	21.733333
803.365531	2343.559537	21.750000
804.009829	2346.920435	21.766667
804.653728	2350.876531	21.783333
805.297625	2354.835669	21.800000
806.263280	2357.513762	21.816667
806.747089	2360.932321	21.833333
807.391778	2363.710443	21.850000
807.875584	2367.133099	21.866667
808.840437	2371.008460	21.883333
809.164157	2373.888666	21.900000
810.129006	2377.769319	21.916667
810.934171	2380.508704	21.933333
811.257487	2383.990741	21.950000
812.062249	2387.330523	21.966667
812.546045	2390.768857	21.983333
813.189120	2395.954585	22.000000
814.154359	2399.254171	22.016667
814.477267	2403.347025	22.033333
815.602181	2407.801629	22.050000
816.087173	2409.455134	22.066667
816.731040	2413.459677	22.083333
817.536593	2415.618985	22.100000
818.019974	2419.676373	22.116667
818.503353	2423.736771	22.133333
819.307694	2427.704220	22.150000
819.951552	2431.722710	22.166667
820.594600	2436.948607	22.183333
821.238452	2440.974039	22.200000
822.363749	2444.858791	22.216667
822.849137	2445.921394	22.233333
823.332098	2450.605432	22.250000
824.137235	2453.385344	22.266667
824.621407	2456.262583	22.283333
825.425731	2460.255058	22.300000
826.069977	2463.693297	22.316667
826.553740	2467.181605	22.333333
827.196765	2472.442137	22.350000
828.162782	2474.580000	22.366667
828.324763	2479.384329	22.383333
829.450040	2483.298818	22.400000
829.772905	2487.455106	22.416667
831.059067	2490.720084	22.433333
831.383150	2493.057073	22.450000
832.188272	2495.860466	22.466667
832.511538	2499.417375	22.483333
833.315841	2503.442782	22.500000
833.960068	2506.909196	22.516667
834.764367	2510.940321	22.533333
835.408590	2514.411628	22.550000
836.374186	2517.179165	22.566667
836.538189	2518.964220	22.583333
837.342072	2523.616042	22.600000
837.664507	2528.414534	22.616667
838.468384	2533.074294	22.633333
839.433152	2537.077644	22.650000
839.916472	2541.226622	22.666667
840.881646	2544.622469	22.683333
841.526266	2547.501587	22.700000
842.010404	2550.429754	22.716667
842.653787	2555.156019	22.733333
843.297580	2559.271037	22.750000
843.780064	2564.667838	22.766667
844.745228	2568.078891	22.783333
845.389427	2571.587013	22.800000
846.355414	2573.769128	22.816667
847.000851	2575.430096	22.833333
847.324911	2577.803472	22.850000
847.807796	2582.600526	22.866667
848.612057	2586.688800	22.883333
848.934041	2592.159112	22.900000
850.219742	2596.112544	22.916667
850.542551	2600.352697	22.933333
851.507699	2603.787029	22.950000
851.991401	2607.365355	22.966667
852.635168	2611.519283	22.983333
853.439414	2615.629071	23.000000
854.084841	2617.303728	23.016667
854.728186	2622.086808	23.033333
855.533677	2624.338375	23.050000
856.017787	2627.307518	23.066667
856.822443	2630.806575	23.083333
857.145234	2635.072283	23.100000
858.109950	2639.152610	23.116667
858.593637	2642.753396	23.133333
859.236549	2648.182283	23.150000
860.202514	2650.398096	23.166667
860.846678	2653.958967	23.183333
861.169877	2657.616127	23.200000
861.973681	2662.386110	23.216667
862.456939	2666.627724	23.233333
863.260318	2672.032001	23.250000
864.064954	2675.559422	23.266667
864.870009	2678.461583	23.283333
865.515423	2680.156735	23.300000
866.159995	2683.108395	23.316667
866.482340	2688.040652	23.333333
867.286548	2692.207241	23.350000
867.929850	2697.053152	23.366667
868.573573	2701.273163	23.383333
869.056389	2706.173334	23.400000
870.341610	2710.843477	23.416667
870.987862	2711.287170	23.433333
871.311037	2714.980012	23.450000
871.794270	2719.259940	23.466667
872.437134	2724.760466	23.483333
873.240476	2730.219282	23.500000
874.205569	2733.736774	23.516667
874.688792	2738.030162	23.533333
875.654731	2740.284880	23.550000
876.300981	2740.732066	23.566667
876.784625	2744.396492	23.583333
877.590081	2746.700767	23.600000
877.913241	2750.415583	23.616667
878.556938	2754.674643	23.633333
879.199780	2760.208306	23.650000
879.843045	2765.110622	23.666667
880.807696	2769.287042	23.683333
881.291755	2772.331942	23.700000
881.935441	2776.606731	23.716667
882.740033	2780.200200	23.733333
883.223661	2783.888931	23.750000
884.188303	2788.079107	23.766667
884.511447	2791.819167	23.783333
885.476085	2796.015099	23.800000
886.121045	2798.387653	23.816667
886.603808	2803.367873	23.833333
887.569299	2806.291149	23.850000
888.214256	2808.668055	23.866667
888.536962	2813.061936	23.883333
889.502449	2815.990372	23.900000
889.664241	2821.077704	23.916667
890.949396	2825.844732	23.933333
891.594348	2828.229798	23.950000
891.917475	2831.994462	23.966667
892.561132	2836.312250	23.983333
893.204355	2841.277036	24.000000
894.008056	2846.199572	24.016667
894.812619	2849.836349	24.033333
895.135306	2854.259218	24.050000
896.260827	2857.808565	24.066667
896.745289	2860.253046	24.083333
897.549846	2863.898595	24.100000
898.355268	2866.253342	24.116667
898.678813	2869.394289	24.133333
899.322452	2873.738873	24.150000
899.806041	2877.484992	24.166667
900.770638	2881.743108	24.183333
901.575186	2885.401995	24.200000
901.737375	2889.896124	24.216667
903.023362	2893.421845	24.233333
903.186417	2896.622499	24.250000
903.829172	2902.286320	24.266667
904.633712	2905.957715	24.283333
904.955500	2911.721835	24.300000
906.079251	2917.912769	24.316667
906.723740	2920.987651	24.333333
907.367792	2924.716325	24.350000
908.333677	2927.050424	24.366667
908.657202	2930.221849	24.383333
909.461731	2933.910371	24.400000
909.944858	2938.346422	24.416667
910.588464	2942.739682	24.433333
911.392987	2946.435796	24.450000
911.876548	2950.225783	24.466667
912.680190	2955.236814	24.483333
913.645628	2958.239212	24.500000
913.969142	2961.426212	24.516667
914.773658	2965.133765	24.533333
915.096290	2969.637354	24.550000
916.059962	2975.275456	24.566667
916.704432	2978.379495	24.583333
917.187538	2982.846517	24.600000
918.152085	2987.179672	24.616667
918.635629	2990.994052	24.633333
919.600613	2994.673869	24.650000
920.245960	2996.469061	24.666667
920.729500	3000.289123	24.683333
921.052116	3004.817027	24.700000
921.855729	3009.871839	24.716667
922.659339	3014.930674	24.733333
923.463833	3018.670564	24.750000
924.107844	3022.458241	24.766667
924.912779	3025.540589	24.783333
925.397195	3028.053094	24.800000
926.040759	3032.509226	24.816667
926.845246	3036.259825	24.833333
927.007365	3040.857902	24.850000
927.970994	3046.560108	24.866667
928.775475	3050.319051	24.883333
929.580400	3053.415468	24.900000
930.225289	3055.893770	24.916667
930.547879	3060.459918	24.933333
931.190982	3065.604375	24.950000
931.834529	3070.086399	24.966667
932.638107	3075.193070	24.983333
933.442129	3079.636431	25.000000
934.086564	3082.792777	25.016667
934.569623	3087.331895	25.033333
935.374087	3091.115216	25.050000
935.696214	3096.374048	25.066667
936.499329	3102.170727	25.083333
937.624300	3106.542345	25.100000
938.269624	3108.371745	25.116667
939.235907	3110.111514	25.133333
939.238411	3113.463562	25.150000
940.042416	3117.933511	25.166667
940.685939	3122.451632	25.183333
941.329009	3127.644696	25.200000
941.972527	3132.169384	25.216667
942.616494	3136.024412	25.233333
943.259557	3141.227969	25.250000
944.064000	3145.043310	25.266667
944.547030	3149.624820	25.283333
945.511950	3153.400176	25.300000
945.995428	3157.312631	25.316667
946.478001	3162.577624	25.333333
947.442915	3166.360648	25.350000
948.086416	3170.911722	25.366667
948.890847	3174.744613	25.383333
949.696637	3176.549828	25.400000
950.020080	3179.843783	25.416667
950.824508	3183.682064	25.433333
951.146586	3189.012368	25.450000
951.949648	3194.890525	25.466667
953.075484	3197.969418	25.483333
953.560310	3199.871250	25.500000
954.043770	3203.810842	25.516667
954.687708	3207.707969	25.533333
955.331190	3212.287286	25.550000
955.814189	3216.914346	25.566667
956.456754	3222.861504	25.583333
957.260709	3227.406249	25.600000
958.065118	3231.272356	25.616667
958.869983	3234.458712	25.633333
959.354344	3237.053554	25.650000
959.997812	3241.652688	25.666667
960.802216	3245.527241	25.683333
961.607533	3248.037328	25.700000
961.930495	3252.049326	25.716667
962.573956	3256.658612	25.733333
963.378354	3260.541968	25.750000
964.021353	3265.841942	25.766667
964.665267	3269.775093	25.783333
965.148241	3274.440696	25.800000
966.273591	3278.245515	25.816667
966.757941	3280.857385	25.833333
967.240909	3285.530471	25.850000
967.884356	3290.162230	25.866667
968.366859	3295.529115	25.883333
969.169398	3302.187878	25.900000
970.294737	3306.008939	25.916667
970.779080	3308.631445	25.933333
971.583919	3311.855672	25.950000
971.907318	3315.214303	25.966667
972.872173	3319.087428	25.983333
973.033703	3324.564784	26.000000
973.997628	3329.825009	26.016667
974.962477	3333.706585	26.033333
975.446349	3337.031357	26.050000
976.090236	3341.005502	26.066667
976.574105	3344.333742	26.083333
977.055653	3351.127272	26.100000
978.180044	3356.363708	26.116667
978.664374	3359.005511	26.133333
979.468732	3362.948100	26.150000
980.113539	3365.548413	26.166667
980.596005	3370.972296	26.183333
981.560372	3375.572913	26.200000
981.883751	3378.961554	26.216667
982.847649	3384.263479	26.233333
983.653396	3386.131860	26.250000
983.816293	3389.569489	26.266667
984.780185	3394.879582	26.283333
985.264037	3398.233399	26.300000
986.066978	3404.291790	26.316667
986.871786	3407.562266	26.333333
987.355167	3411.620555	26.350000
987.838077	3416.379984	26.366667
988.641476	3421.754205	26.383333
988.962966	3427.963766	26.400000
990.248266	3432.514768	26.416667
990.732106	3435.886229	26.433333
991.215007	3440.661403	26.450000
992.179813	3444.606937	26.466667
992.662709	3449.387825	26.483333
993.627982	3452.636109	26.500000
993.790858	3456.104404	26.516667
994.593766	3462.211501	26.533333
995.397142	3467.620066	26.550000
996.040979	3471.668241	26.566667
996.845294	3475.675111	26.583333
997.168170	3479.815012	26.600000
998.132016	3485.193162	26.616667
999.098223	3487.047746	26.633333
999.261089	3490.531875	26.650000
1000.225402	3495.212079	26.666667
1000.548271	3499.362879	26.683333
1001.673534	3503.298532	26.700000
1001.836394	3506.790114	26.716667
1002.639747	3512.232125	26.733333
1003.444047	3516.262014	26.750000
1004.088340	3519.629260	26.766667
1004.570254	3525.876539	26.783333
1005.535028	3529.870714	26.800000
1005.375020	3536.299752	26.816667
1006.820275	3541.590141	26.833333
1007.464084	3545.679773	26.850000
1008.269324	3548.306465	26.866667
1009.075040	3550.223091	26.883333
1009.398841	3552.981463	26.900000
1009.720735	3558.587693	26.916667
1010.523585	3564.780529	26.933333
1011.165953	3571.021648	26.950000
1012.290710	3575.711447	26.966667
1012.935942	3577.679179	26.983333
1013.741173	3580.318149	27.000000
1014.225924	3582.330435	27.016667
1014.548282	3587.243667	27.033333
1015.351596	3592.745485	27.050000
1015.673470	3598.380580	27.066667
1016.958214	3603.761266	27.083333
1017.603440	3605.737059	27.100000
1018.087227	3609.189170	27.116667
1018.891970	3612.556828	27.133333
1019.214795	3616.772170	27.150000
1019.696175	3623.816993	27.166667
1020.498989	3630.063812	27.183333
1021.302763	3634.878278	27.200000
1021.946538	3639.019710	27.216667
1022.911268	3643.077650	27.233333
1023.394561	3647.266563	27.250000
1024.199293	3650.651901	27.266667
1024.522587	3654.167404	27.283333
1025.326351	3658.997502	27.300000
1026.130112	3663.830728	27.316667
1026.613881	3667.309396	27.333333
1027.256676	3672.912763	27.350000
1027.899953	3677.797622	27.366667
1028.703706	3682.642844	27.383333
1029.508426	3686.044618	27.400000
1030.152667	3689.490725	27.416667
1030.957385	3692.895760	27.433333
1031.281152	3695.706305	27.450000
1031.763455	3701.373045	27.466667
1032.566226	3707.683605	27.483333
1033.369967	3712.548009	27.500000
1034.174678	3715.963664	27.516667
1034.657944	3720.192314	27.533333
1035.461679	3725.064768	27.550000
1036.105908	3728.528781	27.566667
1036.749648	3732.721731	27.583333
1037.393875	3736.189272	27.600000
1037.876158	3741.885106	27.616667
1038.519405	3746.813833	27.633333
1039.484096	3750.931787	27.650000
1039.966861	3755.908722	27.666667
1040.932037	3759.301986	27.683333
1041.576744	3762.051712	27.700000
1041.900005	3765.617475	27.716667
1042.542753	3771.292042	27.733333
1043.345976	3776.928287	27.750000
1043.988228	3783.342655	27.766667
1044.792917	3786.790904	27.783333
1045.436636	3791.015511	27.800000
1046.241814	3793.734583	27.816667
1046.725543	3797.272227	27.833333
1047.207797	3803.011746	27.850000
1048.171484	3808.628634	27.866667
1048.494238	3812.949445	27.883333
1049.297442	3818.615614	27.900000
1050.262598	3822.037873	27.916667
1050.746319	3825.588183	27.933333
1051.390517	3829.097963	27.950000
1051.873743	3833.387596	27.966667
1052.677430	3838.331908	27.983333
1053.320142	3844.058475	28.000000
1053.963347	3849.051496	28.016667
1054.927999	3853.225660	28.033333
1055.572684	3856.009749	28.050000
1056.216872	3859.533323	28.066667
1056.700582	3863.100479	28.083333
1057.343283	3868.844776	28.100000
1057.825999	3873.895291	28.116667
1058.468199	3880.387309	28.133333
1059.111388	3885.402924	28.150000
1060.075034	3891.079052	28.166667
1060.719213	3894.618258	28.183333
1061.362893	3898.900892	28.200000
1062.167547	3902.401827	28.216667
1062.489771	3907.514825	28.233333
1063.614880	3911.679018	28.250000
1063.938097	3915.311066	28.266667
1064.580274	3921.835977	28.283333
1065.706376	3924.519719	28.300000
1065.869110	3928.199144	28.316667
1066.672258	3933.947698	28.333333
1067.476902	3937.464495	28.350000
1067.637634	3944.131937	28.366667
1068.601753	3949.103799	28.383333
1069.405891	3953.373868	28.400000
1070.210028	3957.646267	28.416667
1070.692707	3962.751420	28.433333
1071.174884	3968.607419	28.450000
1071.978514	3973.636085	28.466667
1072.783145	3977.170632	28.483333
1073.426796	3981.497214	28.500000
1074.231425	3985.035348	28.516667
1074.393138	3990.240147	28.533333
1075.356231	3996.741156	28.550000
1075.999875	4001.078033	28.566667
1076.803492	4006.126832	28.583333
1077.608617	4008.924635	28.600000
1078.252760	4012.516436	28.616667
1078.737432	4014.647488	28.633333
1079.220592	4019.035331	28.650000
1079.380778	4026.518587	28.666667
1080.663798	4034.472467	28.683333
1081.628889	4037.992953	28.700000
1082.434006	4040.802302	28.716667
1082.919683	4041.432662	28.733333
1083.402834	4045.834580	28.750000
1084.046460	4050.197570	28.766667
1084.529102	4055.359242	28.783333
1085.332190	4061.197383	28.800000
1086.136288	4065.527250	28.816667
1086.458953	4069.982776	28.833333
1087.744480	4074.193988	28.850000
1087.906664	4078.695144	28.866667
1088.871234	4082.993222	28.883333
1089.355386	4085.900966	28.900000
1089.676519	4092.641969	28.916667
1090.640067	4098.465063	28.933333
1091.122180	4104.415170	28.950000
1092.086741	4108.726808	28.966667
1092.890313	4113.841900	28.983333
1093.212961	4118.322268	29.000000
1094.338504	4121.839519	29.016667
1094.661149	4126.324065	29.033333
1095.143249	4132.293305	29.050000
1096.429265	4135.775993	29.066667
1096.430951	4140.349340	29.083333
1097.715942	4145.361282	29.100000
1098.039090	4149.094707	29.116667
1098.521692	4154.315965	29.133333
1099.325246	4159.458811	29.150000
1100.129822	4163.076026	29.166667
1100.773919	4166.735594	29.183333
1101.578493	4170.356092	29.200000
1101.900609	4175.630895	29.216667
1102.704667	4180.020994	29.233333
1103.188283	4183.728602	29.250000
1103.990797	4190.422538	29.266667
1104.794850	4194.820361	29.283333
1105.276919	4200.836492	29.300000
1106.242474	4203.663571	29.316667
1106.242593	4210.575596	29.333333
1107.527040	4216.399699	29.350000
1108.171638	4219.313335	29.366667
1108.654727	4223.807170	29.383333
1109.618729	4228.951725	29.400000
1109.942370	4231.950665	29.416667
1110.584382	4238.722161	29.433333
1111.388935	4242.374100	29.450000
1112.031976	4247.610690	29.466667
1112.836009	4252.038261	29.483333
1113.481115	4254.192415	29.500000
1113.802163	4261.061669	29.516667
1114.766668	4265.455891	29.533333
1115.249741	4269.973313	29.550000
1116.052730	4275.959817	29.566667
1116.857790	4278.854005	29.583333
1117.179863	4284.192890	29.600000
1118.304837	4288.559012	29.616667
1118.466948	4293.168616	29.633333
1119.591400	4298.315012	29.650000
1119.915024	4301.337551	29.666667
1120.717998	4307.345531	29.683333
1121.683008	4310.987293	29.700000
1121.845632	4314.831175	29.716667
1122.487082	4322.443407	29.733333
1123.290568	4327.687603	29.750000
1123.933053	4333.753415	29.766667
1124.736535	4339.004324	29.783333
1125.541580	4341.920597	29.800000
1126.185626	4345.657370	29.816667
1126.669194	4349.435708	29.833333
1127.311670	4355.516289	29.850000
1127.954666	4360.820156	29.866667
1128.597660	4366.127130	29.883333
1129.402176	4369.834317	29.900000
1130.045690	4374.364803	29.916667
1130.689726	4378.115419	29.933333
1131.653667	4383.353086	29.950000
1132.138798	4384.798985	29.966667
1132.620781	4390.943279	29.983333
1133.264287	4395.484548	30.000000
1133.745740	4402.419943	30.016667
1135.031150	4406.808103	30.033333
1135.676229	4409.003105	30.050000
1136.160831	4411.238407	30.066667
1136.643328	4416.615075	30.083333
1136.964820	4422.820218	30.100000
1137.766159	4431.269603	30.116667
1138.891081	4435.712426	30.133333
1139.213093	4441.142742	30.150000
1140.338540	4444.803063	30.166667
1140.822608	4447.835342	30.183333
1141.466095	4452.405457	30.200000
1141.948577	4457.805992	30.216667
1142.752537	4462.341600	30.233333
1143.396549	4466.129641	30.250000
1144.201036	4469.879866	30.266667
1144.684040	4474.500584	30.283333
1145.487995	4479.044767	30.300000
1145.970995	4483.670062	30.316667
1146.613941	4489.049428	30.333333
1147.417891	4493.600966	30.350000
1147.900356	4499.025464	30.366667
1148.703772	4504.374435	30.383333
1149.508248	4508.140945	30.400000
1149.669223	4514.445596	30.416667
1150.953530	4520.479517	30.433333
1151.277105	4523.576503	30.450000
1152.240987	4528.900668	30.466667
1152.725036	4531.961278	30.483333
1153.528972	4536.534552	30.500000
1154.174028	4538.763339	30.516667
1154.817485	4543.379297	30.533333
1155.139988	4548.075793	30.550000
1155.942851	4554.250052	30.566667
1156.585235	4560.467462	30.583333
1157.388626	4565.852447	30.600000
1158.192550	4570.442789	30.616667
1158.836531	4574.276369	30.633333
1159.319500	4578.948986	30.650000
1159.640386	4586.059564	30.666667
1160.764720	4591.381467	30.683333
1161.408159	4596.023516	30.700000
1162.052133	4599.867721	30.716667
1163.015985	4605.236790	30.733333
1163.661030	4607.483277	30.750000
1164.306074	4609.730380	30.766667
1164.629092	4613.658180	30.783333
1165.110436	4620.755441	30.800000
1166.074280	4626.136780	30.816667
1166.395143	4633.281842	30.833333
1167.519458	4638.631641	30.850000
1168.163420	4642.493638	30.866667
1168.485891	4647.238548	30.883333
1169.449724	4652.635275	30.900000
1169.933206	4656.541753	30.916667
1170.573927	4665.242049	30.933333
1171.539913	4667.426585	30.950000
1171.861295	4673.795509	30.966667
1173.147151	4677.517700	30.983333
1173.631707	4679.821276	31.000000
1174.276739	4682.086896	31.016667
1174.921229	4685.160071	31.033333
1175.244227	4689.118613	31.050000
1175.886551	4695.424731	31.066667
1176.690432	4700.080010	31.083333
1177.011258	4707.278821	31.100000
1178.134460	4714.290490	31.116667
1178.457992	4717.451153	31.133333
1179.420713	4724.508772	31.150000
1180.225670	4727.557639	31.166667
1180.708588	4732.305544	31.183333
1181.351981	4737.017396	31.200000
1181.994828	4742.543017	31.216667
1182.476654	4748.921983	31.233333
1183.601468	4753.527097	31.250000
1184.084923	4757.474903	31.266667
1185.211912	4758.832706	31.283333
1185.213939	4762.897498	31.300000
1186.016707	4769.213318	31.316667
1186.659542	4774.757334	31.333333
1187.141899	4780.342617	31.350000
1188.105135	4786.631536	31.366667
1188.427559	4791.446201	31.383333
1189.068199	4800.266208	31.400000
1190.676063	4802.333934	31.416667
1190.678625	4805.599276	31.433333
1191.483016	4809.492175	31.450000
1191.967003	4812.645703	31.466667
1192.448799	4819.069831	31.483333
1193.411470	4826.202112	31.500000
1194.055380	4830.141449	31.516667
1195.019143	4835.644092	31.533333
1195.504770	4836.349204	31.550000
1195.826080	4842.826477	31.566667
1196.789838	4848.336403	31.583333
1197.272717	4853.142848	31.600000
1197.914970	4859.554984	31.616667
1198.557771	4865.150025	31.633333
1199.845223	4866.490068	31.650000
1199.692248	4862.422335	31.666667
1199.223269	4851.048403	31.683333
1198.915854	4838.010208	31.700000
1198.289671	4821.791297	31.716667
1197.501901	4807.268466	31.733333
1197.036709	4790.242533	31.750000
1196.250002	4774.134091	31.766667
1195.623209	4758.825225	31.783333
1194.997489	4741.914539	31.800000
1194.048084	4729.161505	31.816667
1193.581723	4713.879628	31.833333
1192.793853	4699.505351	31.850000
1192.165906	4685.920203	31.866667
1191.699502	4670.701104	31.883333
1190.590642	4656.463928	31.900000
1190.122593	4643.701012	31.916667
1189.495672	4628.582335	31.933333
1188.867662	4615.090190	31.950000
1188.562739	4598.333649	31.966667
1187.132858	4584.275703	31.983333
1186.824690	4572.362062	32.000000
1185.875678	4559.022147	32.016667
1184.925052	4548.091193	32.033333
1184.455313	4537.851463	32.050000
1184.147109	4525.992063	32.066667
1183.520072	4511.047306	32.083333
1182.892489	4496.917788	32.100000
1181.943940	4482.886798	32.116667
1181.315270	4470.379182	32.133333
1180.365108	4458.756297	32.150000
1179.413349	4449.515461	32.166667
1179.424971	4439.258045	32.183333
1178.635788	4426.845199	32.200000
1178.328551	4413.542722	32.216667
1177.541977	4397.234803	32.233333
1176.914286	4383.266798	32.250000
1176.126629	4368.575293	32.266667
1174.855432	4357.153860	32.283333
1174.224038	4348.712772	32.300000
1173.593161	4339.498385	32.316667
1173.123801	4328.692974	32.333333
1172.654433	4317.899570	32.350000
1172.187142	4304.005656	32.366667
1171.237886	4291.028738	32.383333
1170.608533	4279.541472	32.400000
1169.658217	4268.148441	32.416667
1169.027807	4258.237561	32.433333
1168.397390	4248.337128	32.450000
1167.766967	4238.447142	32.466667
1167.621070	4223.815708	32.483333
1166.833250	4209.367731	32.500000
1165.883392	4197.290672	32.516667
1165.254477	4185.148493	32.533333
1164.303569	4174.638408	32.550000
1163.994048	4164.744994	32.566667
1163.043637	4153.492398	32.583333
1162.413659	4142.937521	32.600000
1162.105139	4131.549014	32.616667
1161.316201	4118.770055	32.633333
1160.526230	4107.533332	32.650000
1159.896727	4096.269663	32.666667
1158.784254	4087.424186	32.683333
1158.313175	4079.183938	32.700000
1157.843617	4068.673581	32.716667
1157.214081	4057.458042	32.733333
1156.745521	4045.458012	32.750000
1155.794505	4035.109616	32.766667
1155.486403	4023.097869	32.783333
1154.374891	4012.816731	32.800000
1154.227247	4000.793084	32.816667
1153.278213	3987.486368	32.833333
1152.648106	3977.122990	32.850000
1151.858017	3966.062347	32.866667
1151.067416	3955.765461	32.883333
1150.436783	3946.188281	32.900000
1149.806644	3935.873285	32.916667
1149.176497	3925.570362	32.933333
1148.707320	3914.491407	32.950000
1147.917178	3903.509516	32.966667
1146.805073	3894.114333	32.983333
1146.655330	3885.223387	33.000000

1145.704187	3875.063522	33.016667
1145.395943	3863.264091	33.033333
1144.606254	3851.605790	33.050000
1143.976041	3841.402024	33.066667
1143.186332	3829.773336	33.083333
1142.717569	3818.076441	33.100000
1141.926851	3807.954324	33.116667
1141.458068	3796.286814	33.133333
1140.185406	3787.052808	33.150000
1140.037068	3776.064391	33.166667
1138.925360	3766.076875	33.183333
1138.455065	3756.665889	33.200000
1137.663807	3747.349832	33.216667
1136.872052	3738.775992	33.233333
1136.401737	3729.395411	33.250000
1136.092871	3718.522541	33.266667
1135.142084	3707.833118	33.283333
1134.994654	3695.488861	33.300000
1133.401445	3685.726432	33.316667
1133.091083	3677.088847	33.333333
1132.139286	3667.904694	33.350000
1131.507468	3660.095818	33.366667
1131.197573	3650.760411	33.383333
1130.888640	3639.988402	33.400000
1129.938752	3627.956302	33.416667
1129.470771	3615.092342	33.433333
1128.198453	3605.343560	33.450000
1127.727556	3596.831846	33.466667
1126.776180	3587.020015	33.483333
1126.625746	3579.159684	33.500000
1125.674836	3568.652249	33.516667
1125.364872	3559.419356	33.533333
1124.736341	3546.705344	33.550000
1123.624445	3536.998127	33.566667
1122.993021	3528.601089	33.583333
1122.362547	3518.786972	33.600000
1121.410629	3509.783512	33.616667
1121.259669	3502.708487	33.633333
1120.630602	3490.794464	33.650000
1120.000096	3481.026804	33.666667
1119.531961	3468.393050	33.683333
1118.581427	3457.324454	33.700000
1118.112793	3445.434607	33.716667
1117.000813	3435.853420	33.733333
1116.530269	3426.815052	33.750000
1115.577808	3418.622036	33.766667
1114.785821	3410.394389	33.783333
1114.314315	3402.791079	33.800000
1113.684207	3392.430922	33.816667
1113.053149	3383.486620	33.833333
1112.744451	3372.364485	33.850000
1111.632878	3362.176273	33.866667
1111.161808	3353.921730	33.883333
1110.209762	3345.110027	33.900000
1109.417255	3337.658826	33.916667
1109.106180	3330.083240	33.933333
1108.636952	3319.081350	33.950000
1107.845358	3310.266684	33.966667
1107.376575	3298.599555	33.983333
1106.264005	3289.897204	34.000000
1105.954754	3279.600736	34.016667
1105.003112	3270.185766	34.033333
1104.532439	3261.340409	34.050000
1103.741723	3251.215206	34.066667
1102.949614	3243.169360	34.083333
1102.639859	3233.623772	34.100000
1101.527698	3224.312086	34.116667
1100.895129	3217.623957	34.133333
1100.584894	3208.796363	34.150000
1099.472711	3199.516869	34.166667
1099.483421	3190.621658	34.183333
1098.533075	3179.272235	34.200000
1097.419039	3172.759275	34.216667
1097.108768	3163.984928	34.233333
1096.477530	3155.310200	34.250000
1096.007676	3145.241563	34.266667
1095.377788	3134.552600	34.283333
1094.427383	3123.291157	34.300000
1093.956593	3114.620272	34.316667
1092.844329	3105.463118	34.333333
1092.373071	3097.489126	34.350000
1091.741780	3088.894287	34.366667
1090.949550	3081.028634	34.383333
1090.639205	3072.363776	34.400000
1089.526904	3063.262202	34.416667
1089.055165	3056.006840	34.433333
1088.584769	3046.746546	34.450000
1087.632476	3038.303548	34.466667
1087.161617	3029.735495	34.483333
1086.209758	3020.645148	34.500000
1085.737542	3014.101305	34.516667
1085.268003	3003.562391	34.533333
1084.476601	2994.461279	34.550000
1084.006597	2984.616550	34.566667
1083.055143	2974.921757	34.583333
1082.424196	2965.813130	34.600000
1081.792797	2957.378873	34.616667
1080.840430	2949.046034	34.633333
1080.690458	2940.495944	34.650000
1079.738520	2931.523975	34.666667
1078.946170	2923.836877	34.683333
1078.636139	2914.704853	34.700000
1077.522815	2907.128349	34.716667
1077.051408	2899.378011	34.733333
1076.420394	2890.369948	34.750000
1075.949852	2881.328102	34.766667
1075.159217	2871.081208	34.783333
1074.366821	2863.463686	34.800000
1073.574419	2855.855085	34.816667
1073.264327	2846.813581	34.833333
1072.472784	2837.921847	34.850000
1071.841715	2828.996188	34.866667
1071.049721	2820.778019	34.883333
1070.257286	2813.219002	34.900000
1069.624891	2806.270845	34.916667
1068.992925	2798.682772	34.933333
1068.522301	2789.764269	34.950000
1067.891187	2780.903900	34.966667
1066.938672	2772.792840	34.983333
1066.306680	2765.243851	35.000000
1065.514201	2757.750011	35.016667
1065.203159	2750.126108	35.033333
1064.572439	2740.678051	35.050000
1063.780800	2731.931047	35.066667
1063.149205	2723.789788	35.083333
1062.357550	2715.066040	35.100000
1061.725084	2708.223456	35.116667
1061.093469	2700.112538	35.133333
1060.301792	2691.421530	35.150000
1059.830643	2683.285562	35.166667
1059.199432	2674.571138	35.183333
1058.407731	2665.915377	35.200000
1057.776079	2657.858667	35.216667
1056.984363	2649.226153	35.233333
1056.351850	2642.455268	35.250000
1055.720178	2634.428887	35.266667
1055.088921	2625.782268	35.283333
1054.779041	2616.424217	35.300000
1053.828069	2606.009992	35.316667
1053.035883	2598.077498	35.333333
1052.243271	2590.782513	35.350000
1051.611135	2583.449428	35.366667
1051.139054	2576.703850	35.383333
1050.347262	2568.184884	35.400000
1049.875588	2560.831961	35.416667
1049.084199	2551.712071	35.433333
1048.291966	2543.850783	35.450000
1047.820273	2536.527223	35.466667
1046.867129	2529.354110	35.483333
1046.234111	2523.336112	35.500000
1045.923298	2515.370651	35.516667
1045.453655	2504.987907	35.533333
1044.502141	2495.382348	35.550000
1043.870340	2487.547973	35.566667
1042.757087	2479.866216	35.583333
1042.284929	2473.235803	35.600000
1041.652285	2466.660256	35.616667
1040.859977	2458.911707	35.633333
1040.708767	2452.209802	35.650000
1039.757195	2442.690819	35.666667
1038.803154	2436.856552	35.683333
1038.170891	2429.711294	35.700000
1037.537805	2423.795429	35.716667
1037.226495	2416.571027	35.733333
1036.273660	2408.937323	35.750000
1035.962746	2401.123119	35.766667
1035.171192	2392.248065	35.783333
1034.378817	2384.599387	35.800000
1033.585217	2378.778063	35.816667
1033.113794	2371.052103	35.833333
1032.642768	2362.732282	35.850000
1032.173351	2352.011774	35.866667
1030.739414	2344.006991	35.883333
1030.266751	2338.132257	35.900000
1029.152154	2332.455729	35.916667
1028.999642	2327.698055	35.933333
1028.528975	2318.841907	35.950000
1027.897417	2310.646218	35.966667
1027.427133	2301.218713	35.983333
1026.154028	2292.644472	36.000000
1025.681328	2286.823607	36.016667
1024.888458	2279.914170	36.033333
1024.255665	2273.560169	36.050000
1023.783349	2267.165313	36.066667
1023.152137	2258.452556	36.083333
1022.198363	2252.220189	36.100000
1022.048185	2243.977906	36.116667
1020.935105	2236.037878	36.133333
1020.141796	2229.783596	36.150000
1019.669841	2222.850310	36.166667
1018.877310	2215.434014	36.183333
1018.726702	2207.833997	36.200000
1017.614372	2198.774253	36.216667
1016.981516	2192.515367	36.233333
1016.188957	2185.141339	36.250000
1015.394823	2180.117165	36.266667
1015.243791	2173.150314	36.283333
1014.291122	2165.268654	36.300000
1013.819112	2158.418146	36.316667
1013.026910	2150.510105	36.333333
1012.233922	2143.776204	36.350000
1011.761504	2137.533965	36.366667
1010.808022	2130.865869	36.383333
1010.335594	2124.639119	36.400000
1009.863936	2117.263069	36.416667
1008.910823	2110.044068	36.433333
1008.599634	2102.639683	36.450000
1007.646507	2095.441453	36.466667
1006.852700	2089.930309	36.483333
1006.381009	2082.603449	36.500000
1005.587961	2075.958760	36.516667
1005.276739	2068.602609	36.533333
1004.163480	2060.930094	36.550000
1003.690613	2055.358860	36.566667
1003.058789	2047.559550	36.583333
1002.265328	2041.531290	36.600000
1001.954455	2033.654903	36.616667
1001.323370	2024.752267	36.633333
1000.209305	2018.282712	36.650000
999.737166	2011.624814	36.666667
998.622709	2005.739183	36.683333
998.149422	2000.794640	36.700000
997.838129	1993.545998	36.716667
997.045757	1985.891872	36.733333
996.734827	1978.101361	36.750000
995.621473	1970.570151	36.766667
994.827949	1964.636522	36.783333
994.677103	1957.390435	36.800000
993.563728	1949.891966	36.816667
993.091527	1943.325541	36.833333
992.298729	1936.308652	36.850000
991.665659	1930.367925	36.866667
991.033331	1923.320488	36.883333
990.240140	1916.889327	36.900000
989.928393	1910.317798	36.916667
988.975450	1902.844504	36.933333
988.021757	1896.491108	36.950000
987.548396	1891.657180	36.966667
986.593952	1886.424862	36.983333
986.441550	1881.501718	37.000000
985.970026	1873.925242	37.016667
985.177528	1866.460484	37.033333
984.545505	1858.957773	37.050000
983.592507	1851.566962	37.066667
982.958999	1846.280906	37.083333
982.326220	1839.905720	37.100000
981.532586	1834.136265	37.116667
981.220763	1827.677818	37.133333
980.588698	1820.237466	37.150000
979.635293	1813.453853	37.166667
979.163332	1806.530161	37.183333
977.888219	1800.953765	37.200000
977.414791	1796.218899	37.216667
977.102570	1790.354838	37.233333
976.309618	1783.566515	37.250000
975.516298	1777.328904	37.266667
974.561403	1772.769686	37.283333
974.408922	1767.963910	37.300000
973.776432	1761.159508	37.316667
972.983810	1753.878089	37.333333
972.511789	1747.044690	37.350000
971.718793	1740.322410	37.366667
971.407241	1733.459092	37.383333
970.132780	1726.908911	37.400000
969.981341	1720.549397	37.416667
969.028191	1713.385188	37.433333
968.556485	1706.081294	37.450000
967.281283	1700.636366	37.466667
966.808140	1695.476730	37.483333
966.174509	1690.373823	37.500000
965.540519	1685.806713	37.516667
965.068428	1679.077772	37.533333
964.274654	1673.516876	37.550000
963.642065	1666.857644	37.566667
962.848281	1661.312946	37.583333
962.375459	1655.674127	37.600000
961.903688	1648.466507	37.616667
961.110941	1641.372431	37.633333
960.639505	1633.665012	37.650000
959.846742	1626.595675	37.666667
959.214454	1619.487383	37.683333
958.422024	1611.920981	37.700000
957.306525	1607.591644	37.716667
956.672823	1602.594571	37.733333
956.360085	1597.501583	37.750000
955.405754	1592.100241	37.766667
955.093355	1586.502120	37.783333
954.299845	1580.547390	37.800000
953.505983	1575.117941	37.816667
952.872945	1569.129008	37.833333
952.399696	1564.127884	37.850000
951.927822	1557.075108	37.866667
951.134971	1550.136614	37.883333
950.663424	1542.595004	37.900000
949.709729	1536.244258	37.916667
948.594858	1530.977306	37.933333
948.282062	1525.971784	37.950000
947.488491	1520.106609	37.966667
946.854717	1515.217144	37.983333
946.382105	1509.265380	38.000000
945.427694	1503.984325	38.016667
944.954391	1499.063632	38.033333
944.160454	1493.745351	38.050000
943.526997	1488.383033	38.066667
943.054019	1482.976612	38.083333
942.421228	1476.620089	38.100000
941.948577	1470.725971	38.116667
941.155962	1463.435056	38.133333
940.201508	1458.217477	38.150000
939.889323	1452.299479	38.166667
938.775045	1446.147705	38.183333
938.462178	1441.247817	38.200000
937.829676	1434.460144	38.216667
937.036347	1428.234450	38.233333
936.242678	1422.516720	38.250000
935.448338	1417.801811	38.266667
934.814477	1413.041280	38.283333
934.341762	1407.243475	38.300000
933.386923	1402.600002	38.316667
933.235166	1396.714581	38.333333
932.281972	1389.616331	38.350000
931.808242	1385.332850	38.366667
930.854704	1378.748682	38.383333
930.221139	1373.546730	38.400000
929.908868	1367.757470	38.416667
928.954980	1361.694843	38.433333
928.482212	1355.975750	38.450000
927.848953	1350.317408	38.466667
926.734234	1344.824001	38.483333
926.260469	1340.592621	38.500000
925.627194	1334.958449	38.516667
924.671967	1330.894914	38.533333
924.359001	1326.142487	38.550000
923.564576	1321.552553	38.566667
922.930957	1316.432465	38.583333
922.297657	1310.836346	38.600000
921.664027	1305.731673	38.616667
921.352008	1299.565906	38.633333
920.398042	1293.619374	38.650000
919.603911	1288.591766	38.666667
919.131387	1282.507424	38.683333
918.337887	1276.537971	38.700000
917.865350	1270.474106	38.716667
916.911031	1265.055000	38.733333
916.277037	1260.493434	38.750000
915.482874	1255.514218	38.766667
914.848871	1250.965486	38.783333
914.375668	1245.895484	38.800000
913.421005	1240.990265	38.816667
912.947475	1236.408572	38.833333
912.474574	1230.887034	38.850000
911.680697	1225.479301	38.866667
911.208101	1219.503805	38.883333
910.575328	1213.120533	38.900000
909.459832	1208.786309	38.916667
909.147073	1203.725810	38.933333
907.710912	1199.041200	38.950000
907.718172	1195.294202	38.966667
906.924257	1189.944324	38.983333
906.450993	1184.964531	39.000000
906.139147	1178.541317	39.016667
904.864381	1172.446473	39.033333
904.069507	1168.527198	39.050000
903.596222	1163.579472	39.066667
902.640855	1159.724050	39.083333
902.327736	1155.199559	39.100000
901.533777	1149.915561	39.116667
901.060164	1145.457254	39.133333
900.427296	1139.215230	39.150000
899.633319	1133.957541	39.166667
898.999821	1128.655697	39.183333
898.366011	1123.821012	39.200000
897.571710	1119.046676	39.216667
896.938195	1113.769649	39.233333
895.982787	1109.976691	39.250000
895.830108	1105.467603	39.266667
895.036398	1099.811085	39.283333
894.241768	1095.528173	39.300000
893.929502	1089.730573	39.316667
892.814802	1084.208777	39.333333
892.341431	1079.389239	39.350000
891.547387	1074.231750	39.366667
890.913218	1069.931689	39.383333
890.600318	1065.080960	39.400000
889.485587	1059.604468	39.416667
889.172677	1054.769714	39.433333
888.539390	1049.152475	39.450000
887.424041	1044.600103	39.466667
887.111114	1039.788640	39.483333
886.156539	1034.751712	39.500000
885.522333	1030.507661	39.516667
884.567151	1026.376441	39.533333
884.253312	1022.926427	39.550000
883.780175	1017.758654	39.566667
883.146546	1012.653001	39.583333
882.191643	1008.105199	39.600000
881.557707	1003.457901	39.616667
881.083956	999.205432	39.633333
880.450305	994.131863	39.650000
879.656458	988.681037	39.666667
879.022207	984.503328	39.683333
878.709511	979.348139	39.700000
877.755452	973.541172	39.716667
877.121771	968.512018	39.733333
876.327891	963.109378	39.750000
875.212158	959.129690	39.766667
874.898267	955.757218	39.783333
874.425052	950.705752	39.800000
873.630568	946.203702	39.816667
872.836080	941.709039	39.833333
872.041008	938.085932	39.850000
871.567193	933.928723	39.866667
870.450853	930.854634	39.883333
870.297714	927.031321	39.900000
869.663979	922.084582	39.916667
868.869464	917.629500	39.933333
868.395916	913.074126	39.950000
867.762164	908.152134	39.966667
867.128692	902.811865	39.983333
866.494928	897.908049	40.000000
865.540185	893.120802	40.016667
865.226812	888.976345	40.033333
864.433113	883.302925	40.050000
863.638272	879.334874	40.066667
862.843427	875.372939	40.083333
862.209063	871.363107	40.100000
861.413927	867.835095	40.116667
860.939478	864.625197	40.133333
859.984131	860.739916	40.150000
859.670162	857.484723	40.166667
859.036343	852.663260	40.183333
858.562723	848.215176	40.200000
857.929172	842.992373	40.216667
857.295895	837.362586	40.233333
856.662330	832.161007	40.250000
855.868272	827.023844	40.266667
854.752400	823.250136	40.283333
854.117706	819.734361	40.300000
853.644049	815.341545	40.316667
853.170664	810.542911	40.333333
852.697826	804.928334	40.350000
851.582483	800.365719	40.366667
850.787557	796.525022	40.383333
849.831315	793.976000	40.400000
849.035008	792.195952	40.416667
848.560221	789.489110	40.433333
848.085981	785.966664	40.450000
847.932985	781.931693	40.466667
847.139132	776.488637	40.483333
846.665698	771.762640	40.500000
846.032317	766.287168	40.516667
845.077955	760.932468	40.533333
844.282987	757.153899	40.550000
843.808987	753.272432	40.566667
843.014552	748.698975	40.583333
842.380327	744.482514	40.600000
841.746366	739.871263	40.616667
840.791158	735.779277	40.633333
840.156381	732.387168	40.650000
839.039873	729.564170	40.666667
838.725258	727.272048	40.683333
837.929986	723.947200	40.700000
837.455149	721.316069	40.716667
837.141865	717.039107	40.733333
836.347116	712.933419	40.750000
835.873601	708.328648	40.766667
835.239859	703.390966	40.783333
834.445094	699.309305	40.800000
833.810811	695.180263	40.816667
832.855549	691.168073	40.833333
832.542229	686.944167	40.850000
831.747971	682.106107	40.866667
830.792168	678.901822	40.883333
830.157335	675.592865	40.900000
829.201525	672.398514	40.916667
829.047884	669.325578	40.933333
828.413564	665.250574	40.950000
827.458266	661.292669	40.966667
826.983903	657.955073	40.983333
826.028336	654.398817	41.000000
825.553705	651.459353	41.016667
825.079850	647.362108	41.033333
824.285017	643.382076	41.050000
824.132126	639.189491	41.066667
823.017083	634.178916	41.083333
822.542950	630.497219	41.100000
821.587609	626.602903	41.116667
820.631751	623.482190	41.133333
820.156836	620.966650	41.150000
819.682688	617.307377	41.166667
819.048304	613.327706	41.183333
818.413916	609.355355	41.200000
817.297298	606.696444	41.216667
816.983365	603.386033	41.233333
816.188224	599.866682	41.250000
815.392570	597.110743	41.266667
815.078882	593.436859	41.283333
814.444215	589.879347	41.300000
813.810050	585.574169	41.316667
813.175879	581.277688	41.333333
812.059486	578.281972	41.350000
811.906263	574.584795	41.366667
810.951103	570.421344	41.383333
810.476897	566.847935	41.400000
809.842450	562.962857	41.416667
808.887024	559.195724	41.433333
808.252070	556.068717	41.450000
807.135402	553.483896	41.466667
806.660182	551.423349	41.483333
806.506928	547.772524	41.500000
805.712217	543.609857	41.516667
805.237980	540.083008	41.533333
804.283018	535.623483	41.550000
803.487552	532.589031	41.566667
803.013302	529.081531	41.583333
801.896608	526.534951	41.600000
801.742835	523.659550	41.616667
800.947600	520.278721	41.633333
800.312848	516.848481	41.650000
799.838824	513.004499	41.666667
798.883333	509.334369	41.683333
798.087595	506.705158	41.700000
797.613314	503.243611	41.716667
796.657083	500.678733	41.733333
796.503527	497.478399	41.750000
795.548016	493.839043	41.766667
795.073478	490.760722	41.783333
794.439173	486.663895	41.800000
793.643894	483.349231	41.816667
793.169825	479.570999	41.833333
792.053563	476.380393	41.850000
791.417802	474.457840	41.866667
791.264457	470.942932	41.883333
790.147945	468.124376	41.900000
789.994831	464.265296	41.916667
789.039275	460.692078	41.933333
788.243964	457.424754	41.950000
787.448175	454.871025	41.966667
786.813108	451.912133	41.983333
786.338288	449.255141	42.000000
785.703451	445.953285	42.016667
785.068609	442.657477	42.033333
784.594721	438.610010	42.050000
783.478408	435.494991	42.066667
782.843085	432.918033	42.083333
782.208227	429.646441	42.100000
781.733385	427.022346	42.116667
781.098753	423.413541	42.133333
779.981955	421.022218	42.150000
779.667825	418.008229	42.166667
778.872229	415.166865	42.183333
778.236885	412.620489	42.200000
777.762257	409.676542	42.216667
776.967114	406.159628	42.233333
776.331761	403.626830	42.250000
775.697096	400.066598	42.266667
774.901710	396.912723	42.283333
774.266118	394.736627	42.300000
773.470495	391.935170	42.316667
772.835127	389.424221	42.333333
772.199757	386.917156	42.350000
771.885587	383.961212	42.366667
771.090408	380.498277	42.383333
770.294996	377.382005	42.400000
769.499353	374.610597	42.416667
769.024908	371.393643	42.433333
768.068544	369.026442	42.450000
767.593641	366.494775	42.466667
767.279673	363.237370	42.483333
766.323751	360.210580	42.500000
766.170488	356.573589	42.516667
764.893807	353.337107	42.533333
764.098136	350.607738	42.550000
763.462502	348.494546	42.566667
762.666601	346.107213	42.583333
762.191451	343.944186	42.600000
761.556256	341.175539	42.616667
761.081545	338.355541	42.633333
760.286078	335.321702	42.650000
759.329676	333.011544	42.666667
758.854734	330.536455	42.683333
758.379790	328.065226	42.700000
757.744797	324.995694	42.716667
757.109799	321.932198	42.733333
756.153603	319.315410	42.750000
755.518159	316.918404	42.766667
755.043419	314.141878	42.783333
754.247701	311.482958	42.800000
753.612030	309.424575	42.816667
752.816306	306.774405	42.833333
752.180630	304.722828	42.850000
751.866581	301.587657	42.866667
751.070847	298.951660	42.883333
750.275110	296.320583	42.900000
749.800562	293.258688	42.916667
748.683626	291.073185	42.933333
748.208208	289.309605	42.950000
747.412243	287.018028	42.966667
746.937252	284.617385	42.983333
746.302199	281.636128	43.000000
745.827416	278.924252	43.016667
745.031869	276.010966	43.033333
744.236103	273.422452	43.050000
743.279420	271.531922	43.066667
742.643710	269.531308	43.083333
742.007786	267.851182	43.100000
741.532561	265.799537	43.116667
741.218246	263.060988	43.133333
740.261764	260.869705	43.150000
739.786955	258.196957	43.166667
738.830468	256.013955	43.183333
738.355231	253.979657	43.200000
737.880413	251.319941	43.216667
736.924338	248.521447	43.233333
736.449303	246.185062	43.250000
735.653500	243.653306	43.266667
735.018181	241.069793	43.283333
734.382859	238.491173	43.300000
733.426140	236.652729	43.316667
732.951092	234.336638	43.333333
731.994370	232.504607	43.350000
731.679597	230.448720	43.366667
731.044261	227.890793	43.383333
729.927044	226.125315	43.400000
729.451777	224.135883	43.416667
728.816020	222.206161	43.433333
728.180261	220.279411	43.450000
727.704988	218.298864	43.466667
727.230330	215.401634	43.483333
726.595179	212.567198	43.500000
725.799331	210.100883	43.516667
725.003481	207.639478	43.533333
724.207219	205.791583	43.550000
723.571443	203.889845	43.566667
723.096357	201.630746	43.583333
722.460983	199.129396	43.600000
721.504427	197.049073	43.616667
721.029332	194.802042	43.633333
720.072569	193.031019	43.650000
719.597066	191.393489	43.666667
718.800989	189.270398	43.683333
718.004507	187.751761	43.700000
717.689688	185.764642	43.716667
717.054092	183.594825	43.733333
716.418493	181.428876	43.750000
715.622204	179.622253	43.766667
714.826112	177.520520	43.783333
714.511482	175.251800	43.800000
713.715385	173.157812	43.816667
712.919286	171.067711	43.833333
712.443961	169.163706	43.850000
711.487171	167.433633	43.866667
711.333017	165.126212	43.883333
710.537105	162.755842	43.900000
709.580505	160.741665	43.916667
708.944681	158.911175	43.933333
707.987880	157.197729	43.950000
707.512344	155.609210	43.966667
706.715830	154.136969	43.983333
706.240488	152.260469	44.000000
705.765143	150.386920	44.016667
704.969015	148.339028	44.033333
704.333373	146.237934	44.050000
703.697534	144.431195	44.066667
702.580228	142.798729	44.083333
702.425849	140.826617	44.100000
701.308345	139.489421	44.116667
700.511623	138.329191	44.133333
700.196557	136.710426	44.150000
699.721002	135.150958	44.166667
699.246024	132.730111	44.183333
698.289386	130.772846	44.200000
697.653529	128.991983	44.216667
697.017862	126.927674	44.233333
696.060833	125.553516	44.250000
695.424588	124.352890	44.266667
694.467556	122.982783	44.283333
694.152285	121.671125	44.300000
693.676906	119.848771	44.316667
693.041036	118.086580	44.333333
692.405165	116.327354	44.350000
691.448125	114.968963	44.366667
690.651383	113.838661	44.383333
690.496971	111.915371	44.400000
689.540117	110.281245	44.416667
689.225213	108.421087	44.433333
688.268354	106.792920	44.450000
687.632281	105.334280	44.466667
686.996583	103.316452	44.483333
686.199831	102.200484	44.500000
685.724430	100.411535	44.516667
685.088351	98.962355	44.533333
684.613133	96.899792	44.550000
683.816935	94.955707	44.566667
682.859874	93.629167	44.583333
682.063114	92.525406	44.600000
681.427027	91.088247	44.616667
680.630079	90.265148	44.633333
680.154292	89.051295	44.650000
679.357713	87.676962	44.666667
678.881924	86.466445	44.683333
678.245831	85.038767	44.700000
677.449063	83.946320	44.716667
677.133944	82.407904	44.733333
676.497846	80.986411	44.750000
675.540954	79.407283	44.766667
675.065342	77.933133	44.783333
674.268752	76.575960	44.800000
673.793136	75.106163	44.816667
672.996543	73.753369	44.833333
672.521107	72.015183	44.850000
671.564022	70.724558	44.866667
670.927913	69.321269	44.883333
670.131131	68.249265	44.900000
669.655325	67.063899	44.916667
668.698235	65.781346	44.933333
668.543404	64.484401	44.950000
667.586311	63.205870	44.966667
667.110681	61.757130	44.983333
666.153404	60.752675	45.000000
665.356615	59.692281	45.016667
665.041290	58.460955	45.033333
664.565836	56.751121	45.050000
663.769043	55.695901	45.066667
662.972429	54.374152	45.083333
662.336301	52.997085	45.100000
661.539505	51.947060	45.116667
660.903196	50.841043	45.133333
660.266707	50.003347	45.150000
659.469908	48.957607	45.166667
658.673108	47.913399	45.183333
657.875950	47.402693	45.200000
657.721102	46.130758	45.216667
656.924477	44.825105	45.233333
656.448650	43.671585	45.250000
655.330868	42.749831	45.266667
654.854685	42.128443	45.283333
654.057878	41.094022	45.300000
653.742359	40.152436	45.316667
653.106215	38.799445	45.333333
652.630382	37.654421	45.350000
651.833748	36.363019	45.366667
650.876271	35.656897	45.383333
650.239947	34.574034	45.400000
649.603621	33.492692	45.416667
648.967295	32.412870	45.433333
648.170304	31.653820	45.450000
647.694289	30.780513	45.466667
646.897471	29.762280	45.483333
646.260966	28.948795	45.500000
645.624635	27.875681	45.516667
644.827640	27.122036	45.533333
644.512111	26.196445	45.550000
643.875951	24.867516	45.566667
642.918465	24.174956	45.583333
641.960979	23.483392	45.600000
641.484784	22.878879	45.616667
640.527296	22.189051	45.633333
640.372078	21.470491	45.650000
639.735566	20.667044	45.666667
639.259715	19.548755	45.683333
638.302225	18.862868	45.700000
637.505223	18.120289	45.716667
637.029197	17.263316	45.733333
636.232193	16.522704	45.750000
635.916483	15.866921	45.766667
634.798673	14.986736	45.783333
634.161812	14.704342	45.800000
633.685955	13.595493	45.816667
632.888777	13.115589	45.833333
632.412575	12.520816	45.850000
631.615567	11.786362	45.866667
630.818388	11.308323	45.883333
630.663333	10.344691	45.900000
629.866153	9.867947	45.916667
629.390291	8.766702	45.933333
628.432621	8.349180	45.950000
627.795928	7.816743	45.966667
627.319893	6.972954	45.983333
626.201733	6.615054	46.000000
625.886016	5.968971	46.016667
625.088833	5.496696	46.033333
624.131160	5.082740	46.050000
624.136419	4.322790	46.066667
622.857769	4.025479	46.083333
622.381561	3.439916	46.100000
621.905184	3.107615	46.116667
621.107998	2.638515	46.133333
620.792278	1.996654	46.150000
619.673946	1.896449	46.166667
619.197736	1.313290	46.183333
618.721358	0.982605	46.200000
617.924002	0.767736	46.216667
617.447792	0.185873	46.233333
616.971413	-0.143942	46.250000
616.334545	-0.415718	46.266667
615.697509	-0.435928	46.283333
614.900320	-0.900717	46.300000
614.584261	-1.036257	46.316667
613.465927	-1.133755	46.333333
612.829058	-1.404387	46.350000
612.513167	-1.790370	46.366667
611.876298	-2.060501	46.383333
611.399917	-2.388186	46.400000
610.763048	-2.657814	46.416667
610.126179	-2.927191	46.433333
609.810454	-3.562033	46.450000
608.692118	-3.657343	46.466667
608.215904	-4.233444	46.483333
607.739523	-4.559387	46.500000
606.781675	-4.711617	46.516667
606.626270	-5.152704	46.533333
605.507934	-5.246598	46.550000
605.192040	-5.629365	46.566667
604.394847	-6.087397	46.583333
603.757976	-6.353885	46.600000
603.281593	-6.677955	46.616667
602.644888	-7.192514	46.633333
601.847527	-7.400286	46.650000
601.210821	-7.913912	46.666667
600.252971	-8.063206	46.683333
599.776588	-8.385780	46.700000
598.818904	-8.782401	46.716667
598.182031	-9.046499	46.733333
597.384669	-9.252493	46.750000
596.587307	-9.458230	46.766667
595.789945	-9.663712	46.783333
594.832094	-9.811078	46.800000
594.195054	-9.826803	46.816667
593.558180	-10.089502	46.833333
592.600329	-10.236221	46.850000
592.123943	-10.556278	46.866667
591.005603	-10.644614	46.883333
590.208074	-10.601880	46.900000
589.250222	-10.747689	46.916667
587.810739	-10.473262	46.933333
586.852556	-10.126028	46.950000
585.252584	-9.793644	46.966667
583.491958	-9.157036	46.983333
582.052310	-8.636173	47.000000
580.452007	-7.811124	47.016667
579.814472	-7.086839	47.033333
579.177102	-6.608874	47.050000
579.181687	-6.362334	47.066667
578.865459	-6.246596	47.083333
578.709720	-6.188727	47.100000
578.874793	-5.999998	47.116667
578.398077	-5.826394	47.133333
578.242504	-6.015119	47.150000
577.765787	-5.841512	47.166667
577.289236	-5.914433	47.183333
577.133497	-5.856563	47.200000
576.336134	-6.060080	47.216667
575.859418	-5.886464	47.233333
575.222378	-5.901314	47.250000
574.745991	-6.220189	47.266667
573.948298	-5.930813	47.283333
573.150934	-6.133677	47.300000
570.587864	-5.207640	47.316667
569.950659	-4.976130	47.333333
569.634431	-4.860375	47.350000
569.639346	-5.106385	47.366667
569.323119	-4.990628	47.383333
568.365101	-4.889301	47.400000
567.727896	-4.657783	47.416667
565.967435	-4.266977	47.433333
565.330229	-4.035455	47.450000
565.334979	-4.035455	47.466667
565.660707	-4.151216	47.483333
565.826275	-4.700658	47.500000
564.386791	-4.425398	47.516667
562.305187	-3.672910	47.533333
560.705050	-3.094071	47.550000
560.709800	-3.094071	47.566667
563.122045	-4.207945	47.583333
561.843049	-3.990417	47.600000
560.243076	-3.657041	47.616667
558.482615	-3.265697	47.633333
557.363944	-2.860482	47.650000
556.566250	-2.571042	47.666667
556.571000	-2.571042	47.683333
556.736403	-2.874272	47.700000
558.506693	-3.756343	47.716667
556.746395	-3.609944	47.733333
553.541535	-2.697192	47.750000
552.904330	-2.465620	47.766667
550.822562	-1.467939	47.783333
552.271874	-2.234048	47.800000
552.116136	-2.176155	47.816667
552.763004	-2.652750	47.833333
553.089060	-3.258411	47.850000
549.081920	-2.300598	47.866667
548.765692	-2.184802	47.883333
548.128487	-1.953210	47.900000
547.170304	-1.605820	47.916667
548.138151	-2.197910	47.933333
545.896222	-1.631949	47.950000
546.703580	-2.166023	47.966667
545.263931	-1.644913	47.983333
544.947867	-1.773614	48.000000
544.310826	-1.786446	48.016667
544.155251	-1.972924	48.033333
542.555113	-1.393882	48.050000
542.720679	-1.940355	48.066667
539.676143	-0.840135	48.083333
541.446432	-1.721293	48.100000
538.401896	-0.621053	48.116667
540.493163	-1.617972	48.133333
539.053678	-1.340853	48.150000
539.058591	-1.584850	48.166667
537.940247	-1.667281	48.183333
536.500761	-1.389875	48.200000
535.221601	-0.926568	48.216667
536.510424	-1.633620	48.233333
532.342467	-0.127846	48.250000
535.556992	-1.286135	48.266667
533.957181	-1.194274	48.283333
534.604049	-1.669497	48.300000
533.004237	-1.577242	48.316667
529.959864	-0.720127	48.333333
530.606569	-0.951808	48.350000
529.327572	-0.731734	48.366667
528.850855	-0.557970	48.383333
531.584077	-1.785877	48.400000
526.934816	-0.349286	48.416667
529.347060	-1.461250	48.433333
526.142360	-0.788773	48.450000
526.147110	-0.788773	48.466667
525.670394	-0.614994	48.483333
524.230908	-0.336561	48.500000
524.556798	-0.695264	48.516667
524.882688	-1.053912	48.533333
521.677825	-0.138037	48.550000
523.608603	-1.075868	48.566667
520.724718	-0.275693	48.583333
521.210934	-0.449490	48.600000
520.895031	-0.818629	48.616667
518.973916	-0.123417	48.633333
520.423227	-0.887237	48.650000
518.020808	-0.260544	48.666667
517.223276	-0.213136	48.683333
517.870305	-0.929264	48.700000
515.307397	-0.244320	48.716667
516.596057	-0.707843	48.733333
514.996082	-0.370464	48.750000
514.359039	-0.380661	48.766667
514.524439	-0.680507	48.783333
512.442997	-0.169077	48.800000
514.534425	-1.405865	48.816667
510.848095	-0.314749	48.833333
510.050401	-0.025012	48.850000
509.894824	-0.208647	48.866667
508.776153	0.196991	48.883333
510.225463	-0.566068	48.900000
510.070048	-0.990989	48.916667
507.667466	-0.121722	48.933333
509.438077	-1.483037	48.950000
504.628326	0.014448	48.966667
505.114542	-0.159417	48.983333
503.514404	0.420135	49.000000
504.642575	0.014448	49.016667
505.289442	-0.458455	49.033333
504.813048	-0.766570	49.050000
502.892256	-0.552797	49.066667
502.897167	-0.793571	49.083333
499.531814	0.182917	49.100000
500.659985	-0.222818	49.116667
498.257565	0.405986	49.133333
499.385575	0.240879	49.150000
499.390647	-0.240333	49.166667
498.272136	-0.075095	49.183333
498.919164	-0.787807	49.200000
497.158859	-0.630767	49.216667
495.398232	0.006892	49.233333
496.366236	-0.821273	49.250000
492.358606	0.868123	49.266667
494.128732	0.230452	49.283333
492.207939	0.445909	49.300000
493.015132	0.156049	49.316667
493.983136	-0.671751	49.333333
492.062342	-0.455776	49.350000
491.585947	-0.761318	49.366667
489.985970	-0.421177	49.383333
487.583388	0.448505	49.400000
487.427809	0.266921	49.416667
486.469466	0.854357	49.433333
488.881708	-0.254898	49.450000
488.886779	-0.733864	49.466667
486.484518	-0.342841	49.483333
486.328939	-0.524119	49.500000
483.605540	0.222434	49.516667
483.128983	0.157265	49.533333
483.294222	0.099279	49.550000
481.694244	0.440088	49.566667
482.341109	-0.030866	49.583333
481.704064	-0.037851	49.600000
480.585712	-0.109615	49.616667
480.911600	-0.464356	49.633333
478.669667	0.108851	49.650000
479.156043	-0.303760	49.666667
477.556064	0.037622	49.683333
475.955926	0.617577	49.700000
476.602791	0.147097	49.716667
475.805257	0.198645	49.733333
476.291633	-0.213725	49.750000
475.494258	-0.400304	49.766667
473.894279	-0.058489	49.783333
473.257234	-0.064609	49.800000
471.978232	0.161351	49.816667
472.143471	0.103347	49.833333
470.864470	0.329380	49.850000
470.227583	0.085595	49.866667
470.713800	-0.088423	49.883333
469.434958	-0.099931	49.900000
468.476934	0.010432	49.916667
468.000377	-0.053163	49.933333
466.400238	0.526937	49.950000
466.726125	0.173360	49.966667
466.410216	-0.185551	49.983333
464.810077	0.394578	50.000000
465.457100	-0.312160	50.016667
463.696632	0.088759	50.033333
462.899097	0.141657	50.050000
462.582869	0.257691	50.066667
461.785334	0.310659	50.083333
461.629913	-0.105376	50.100000
460.350911	0.121851	50.116667
459.713705	0.353934	50.133333
459.558284	-0.061721	50.150000
457.797657	0.576528	50.166667
458.284032	0.165718	50.183333
457.326007	0.277182	50.200000
456.688960	0.272665	50.216667
456.212561	-0.026306	50.233333
454.933558	0.201486	50.250000
454.617489	0.081175	50.266667
453.498817	0.487381	50.283333
452.701281	0.541230	50.300000
453.187656	0.130898	50.316667
452.069142	0.300941	50.333333
451.271606	0.354990	50.350000
451.116183	-0.059023	50.366667
449.516203	0.285402	50.383333
449.360622	0.107573	50.400000
448.241950	0.513832	50.416667
446.962947	0.742336	50.433333
447.770299	0.216407	50.450000
446.651785	0.387006	50.466667
447.298648	-0.080772	50.483333
446.822405	-0.613144	50.500000
444.099002	0.138235	50.516667
443.461955	0.135112	50.533333
441.540839	0.831661	50.550000
442.508521	0.483386	50.566667
441.871473	0.480336	50.583333
442.036870	0.187113	50.600000
442.683890	-0.515261	50.616667
440.442111	-0.172490	50.633333
439.163108	0.057057	50.650000
438.044593	0.228623	50.666667
435.962831	1.218106	50.683333
437.572469	0.637581	50.700000
436.935578	0.400263	50.716667
436.940485	0.165587	50.733333
437.266527	-0.419703	50.750000
434.703769	0.040298	50.766667
433.745743	0.154289	50.783333
432.145762	0.500595	50.800000
431.187422	1.083252	50.816667
433.118194	0.152229	50.833333
431.839191	0.382483	50.850000
432.486209	-0.318065	50.866667
431.207362	-0.321605	50.883333
428.162981	0.547726	50.900000
428.328376	0.255798	50.916667
426.407260	0.952611	50.933333
427.695920	0.488069	50.950000
427.861472	-0.037540	50.966667
425.459203	0.366226	50.983333
426.587531	-0.273831	51.000000
424.345593	0.305697	51.016667
424.992455	-0.160027	51.033333
423.392473	0.187354	51.050000
421.310868	0.942334	51.066667
422.760330	-0.046886	51.083333
420.678724	0.708118	51.100000
421.004608	0.358792	51.116667
421.170159	-0.165457	51.133333
418.928221	0.414680	51.150000
419.575083	-0.050573	51.166667
417.654122	0.413552	51.183333
416.696095	0.529255	51.200000
416.861490	0.238434	51.216667
414.940529	0.702786	51.233333
415.426745	0.528528	51.250000
415.271318	0.121453	51.266667
413.189869	0.644112	51.283333
414.478685	-0.053026	51.300000
412.236747	0.527870	51.316667
412.883607	0.063206	51.333333
411.283780	0.179710	51.350000
410.486085	0.470176	51.366667
410.170169	0.122201	51.383333
408.088563	0.877439	51.400000
408.253802	0.819344	51.416667
409.703262	-0.167435	51.433333
407.300835	0.472163	51.450000
408.750295	-0.514277	51.466667
405.385089	0.242536	51.483333
405.389994	0.010982	51.500000
403.950344	0.533907	51.516667
402.189716	1.173038	51.533333
403.317888	0.766318	51.550000
402.841326	0.709146	51.566667
403.006875	0.188255	51.583333
404.296001	-0.970350	51.600000
400.609662	0.135026	51.616667
399.651633	0.252631	51.633333
397.409693	0.835196	51.650000
398.056244	0.833734	51.666667
398.382126	0.486528	51.683333
397.424098	0.604275	51.700000
398.231601	-0.147960	51.716667
397.434216	-0.318820	51.733333
394.871298	0.380422	51.750000
394.715714	0.207986	51.766667
392.794751	0.674917	51.783333
392.959836	0.847282	51.800000
392.804405	0.444492	51.816667
391.685887	0.620971	51.833333
392.974703	-0.074302	51.850000
390.572428	0.337110	51.866667
390.416843	0.165116	51.883333
389.779791	0.167559	51.900000
387.858983	0.405152	51.916667
388.024221	0.347024	51.933333
386.584725	0.640309	51.950000
386.268497	0.756565	51.966667
386.273555	0.297025	51.983333
384.834059	0.590521	52.000000
386.443852	-0.220412	52.016667
384.041729	-0.036915	52.033333
383.565013	0.137489	52.050000
381.483561	0.663878	52.066667
381.327821	0.722014	52.083333
380.209303	0.899668	52.100000
381.176986	0.550849	52.116667
380.700730	0.037717	52.133333
381.668566	-0.540187	52.150000
378.624334	0.106550	52.166667
378.629237	-0.122325	52.183333
374.942896	0.986169	52.200000
375.749784	1.153108	52.216667
375.915176	0.866106	52.233333
376.883165	0.059693	52.250000
374.962355	0.300134	52.266667
375.930191	-0.277312	52.283333
372.885958	0.370571	52.300000
372.409394	0.316650	52.316667
370.488278	1.014456	52.333333
370.493027	1.014456	52.350000
371.139886	0.553550	52.366667
371.144941	0.097117	52.383333
370.508041	-0.126460	52.400000
369.389522	0.052625	52.416667
367.308221	0.352851	52.433333
367.312971	0.352851	52.450000
365.552495	0.764785	52.466667
366.199201	0.532150	52.483333
365.401811	0.367516	52.500000
365.085736	0.256213	52.516667
364.769813	-0.082532	52.533333
364.132912	-0.304705	52.550000
361.730480	0.340461	52.566667
361.414252	0.456794	52.583333
359.974602	0.980290	52.600000
359.979352	0.980290	52.616667
361.107829	0.118686	52.633333
359.828819	0.356905	52.650000
360.475829	-0.329851	52.666667
357.913060	0.147064	52.683333
356.633899	0.612445	52.700000
356.317823	0.501979	52.716667
355.038813	0.740622	52.733333
355.043563	0.740622	52.750000
355.209106	0.229130	52.766667
354.411563	0.293445	52.783333
355.219061	-0.450405	52.800000
352.495651	0.312259	52.816667
352.019237	0.034222	52.833333
349.777142	0.848767	52.850000
349.942381	0.790586	52.866667
350.749727	0.273483	52.883333
349.470717	0.512817	52.900000
349.636258	0.002553	52.916667
348.678377	-0.100169	52.933333
346.275793	0.772640	52.950000
346.601672	0.430448	52.966667
345.483151	0.612012	52.983333
345.488052	0.386318	53.000000
345.172126	0.051489	53.016667
343.571987	0.633408	53.033333
344.058506	0.007870	53.050000
343.100473	0.131645	53.066667
341.339996	0.546467	53.083333
342.307830	-0.027972	53.100000
339.905397	0.619781	53.116667
340.070786	0.336448	53.133333
338.791776	0.576964	53.150000
337.512614	1.042558	53.166667
339.764360	0.002752	53.183333
337.201588	0.484125	53.200000
338.329911	-0.148122	53.216667
336.569734	-0.182008	53.233333
334.488128	0.574664	53.250000
333.851072	0.582914	53.266667
332.571911	1.048566	53.283333
333.700083	0.641120	53.300000
333.544645	0.250360	53.316667
332.105295	0.325518	53.333333
333.233618	-0.306229	53.350000
330.670845	0.176799	53.366667
329.712811	0.301995	53.383333
328.433800	0.543690	53.400000
327.154488	1.233416	53.416667
328.764277	0.427260	53.433333
327.324927	0.503351	53.450000
327.650804	0.163083	53.466667
327.174537	-0.333409	53.483333
324.450975	0.656332	53.500000
324.937491	0.034560	53.516667
323.177012	0.451543	53.533333
322.539657	0.907889	53.550000
324.149595	-0.121199	53.566667
320.784227	0.878173	53.583333
322.554505	0.014422	53.600000
321.436131	-0.024368	53.616667
319.675652	0.393046	53.633333
320.643485	-0.179357	53.650000
317.278116	0.820499	53.666667
317.764333	0.645809	53.683333
317.287765	0.597601	53.700000
316.169092	1.005219	53.716667
318.260497	-0.197415	53.733333
315.376744	0.405411	53.750000
315.863259	-0.214427	53.766667
313.781802	0.320178	53.783333
312.181811	0.680151	53.800000
312.507539	0.563674	53.816667
311.228526	0.807243	53.833333
311.875231	0.574287	53.850000
312.682873	-0.383590	53.866667
309.638481	0.500910	53.883333
309.964506	-0.059590	53.900000
307.562071	0.592172	53.916667
307.406183	0.872322	53.933333
307.732208	0.312078	53.950000
306.292854	0.392790	53.966667
306.458093	0.334542	53.983333
305.660695	0.182519	54.000000
304.060704	0.543483	54.016667
304.707558	0.089000	54.033333
301.983995	1.079279	54.050000
303.433294	0.333599	54.066667
302.154429	0.356981	54.083333
301.356882	0.427026	54.100000
301.682906	-0.131767	54.116667
299.119832	0.800346	54.133333
299.124730	0.579307	54.150000
298.648161	0.533103	54.166667
297.048169	0.894782	54.183333
298.818446	0.033063	54.200000
296.095031	0.802706	54.216667
296.581396	0.407189	54.233333
296.104974	0.140694	54.250000
293.702537	0.794117	54.266667
294.991347	0.107507	54.283333
292.428421	0.819347	54.300000
292.433171	0.819347	54.316667
292.438216	0.378690	54.333333
291.480327	0.287891	54.350000
291.485224	0.067773	54.366667
290.366846	0.035624	54.383333
288.606217	0.676628	54.400000
288.932239	0.120284	54.416667
287.492736	0.424955	54.433333
287.336997	0.483230	54.450000
286.057982	0.729700	54.466667
285.420923	0.743132	54.483333
286.388754	0.173845	54.500000
284.628419	0.375861	54.516667
284.633316	0.156424	54.533333
283.675426	0.067425	54.550000
281.914797	0.708537	54.566667
282.080329	0.211820	54.583333
279.838233	1.027806	54.600000
280.484939	0.794667	54.616667
280.489982	0.356484	54.633333
279.210967	0.603779	54.650000
280.018455	-0.125483	54.666667
278.097484	0.355171	54.683333
277.460424	0.369578	54.700000
276.502533	0.282004	54.716667
275.062882	0.806638	54.733333
274.586311	0.762955	54.750000
274.270083	0.879542	54.766667
274.274979	0.661041	54.783333
274.280022	0.224214	54.800000
273.482619	0.079112	54.816667
272.364092	0.268999	54.833333
270.282631	0.808756	54.850000
269.645571	0.823889	54.866667
269.971299	0.707288	54.883333
269.976341	0.271328	54.900000
268.697325	0.519862	54.916667
268.862856	0.025963	54.933333
267.102372	0.449617	54.950000
266.304823	0.523508	54.966667
265.828252	0.480851	54.983333
264.388746	0.788110	55.000000
265.035598	0.337420	55.016667
264.398537	0.353265	55.033333
263.601133	0.210214	55.050000
262.643095	0.342877	55.066667
261.364078	0.592238	55.083333
261.368973	0.375154	55.100000
260.410934	0.508021	55.116667
260.576319	0.232743	55.133333
259.136958	0.323856	55.150000
258.339263	0.615447	55.166667
257.862691	0.573629	55.183333
257.065141	0.648514	55.200000
255.946613	0.840108	55.216667
256.432975	0.448557	55.233333
255.475081	0.365494	55.250000
254.838019	0.382383	55.266667
254.843059	-0.050251	55.283333
252.119640	0.725076	55.300000
253.087324	0.375115	55.316667
251.166496	0.642794	55.333333
250.850268	0.759452	55.350000
251.336629	0.368431	55.366667
250.860346	-0.104326	55.383333
249.741817	0.088206	55.400000
248.783777	0.222475	55.416667
246.702315	0.765157	55.433333
247.509509	0.473483	55.450000
246.069858	0.998496	55.466667
247.037831	0.217342	55.483333
245.437979	0.369812	55.500000
245.442873	0.154453	55.516667
244.164000	0.190636	55.533333
242.242881	0.890726	55.550000
242.247775	0.675560	55.566667
242.252669	0.460451	55.583333
241.134140	0.653806	55.600000
242.262601	-0.184522	55.616667
240.020792	0.202644	55.633333
238.741630	0.669419	55.650000
237.944222	0.531744	55.666667
237.146383	1.038159	55.683333
238.114355	0.258778	55.700000
237.637781	0.219270	55.716667
236.037928	0.373852	55.733333
236.203311	0.101126	55.750000
233.480034	0.664584	55.766667
234.126740	0.431165	55.783333
233.008210	0.625467	55.800000
232.371004	0.858890	55.816667
233.338975	0.080566	55.833333
230.776187	0.586354	55.850000
232.064992	-0.094402	55.866667
229.823182	0.295069	55.883333
228.864998	0.645238	55.900000
229.191012	0.101188	55.916667
226.949058	0.704711	55.933333
227.756253	0.412890	55.950000
227.600943	-0.169096	55.966667
225.358846	0.648038	55.983333
226.647794	-0.245493	56.000000
223.282417	0.767051	56.016667
224.249958	0.630033	56.033333
223.131571	0.612286	56.050000
222.333875	0.904138	56.066667
223.783312	-0.047293	56.083333
222.183457	0.110577	56.100000
220.262623	0.385467	56.116667
220.107026	0.231133	56.133333
217.062484	1.340282	56.150000
219.153449	0.794094	56.166667
218.516670	0.389671	56.183333
217.719117	0.469040	56.200000
217.884641	-0.014205	56.216667
215.642828	0.378512	56.233333
215.487231	0.224678	56.250000
214.368700	0.421207	56.266667
213.089680	0.676192	56.283333
214.378484	-0.002920	56.300000
211.173453	1.164792	56.316667
213.425191	0.135422	56.333333
211.825476	0.083749	56.350000
210.546314	0.550861	56.366667
211.995749	-0.398041	56.383333
208.469881	0.674961	56.400000
208.795751	0.346640	56.416667
207.998339	0.215711	56.433333
205.916731	0.974835	56.450000
207.365882	0.449287	56.466667
206.247633	0.224176	56.483333
206.252525	0.013002	56.500000
205.294623	-0.058773	56.516667
202.892037	0.817215	56.533333
203.699232	0.525219	56.550000
201.778254	1.015036	56.566667
202.425102	0.570516	56.583333
202.430134	0.148853	56.600000
200.348808	0.486680	56.616667
201.156145	-0.015962	56.633333
199.395797	0.205448	56.650000
197.795656	0.789517	56.666667
198.763481	0.228643	56.683333
196.521525	0.835989	56.700000
197.489491	0.064979	56.716667
195.729002	0.497309	56.733333
195.252425	0.462421	56.750000
195.578435	-0.074475	56.766667
193.657456	0.416551	56.783333
193.020391	0.440333	56.800000
193.025422	0.020756	56.816667
191.585770	0.546509	56.833333
191.911638	0.219980	56.850000
189.188214	1.003462	56.866667
190.316528	0.384961	56.883333
190.000580	0.082839	56.900000
188.882047	0.282400	56.916667
189.208055	-0.253045	56.933333
186.484631	0.530959	56.950000
186.168543	0.438669	56.966667
185.691826	0.613946	56.983333
184.573432	0.604838	57.000000
184.899160	0.487984	57.016667
184.101744	0.362272	57.033333
183.143700	0.504014	57.050000
184.111664	-0.264061	57.066667
181.548728	0.462193	57.083333
181.393128	0.312037	57.100000
179.953616	0.629412	57.116667
179.316549	0.654686	57.133333
179.481788	0.596252	57.150000
178.844861	0.413250	57.166667
178.849750	0.204967	57.183333
177.891984	-0.068893	57.200000
176.131354	0.573944	57.216667
176.938689	0.073706	57.233333
175.017848	0.359109	57.250000
175.022737	0.151255	57.266667
173.904202	0.352567	57.283333
172.304201	0.729283	57.300000
172.790418	0.553949	57.316667
172.474468	0.255565	57.333333
171.837539	0.074319	57.350000
171.521450	-0.016212	57.366667
169.761097	0.212065	57.383333
169.605358	0.270516	57.400000
168.165984	0.382161	57.416667
167.047310	0.791327	57.433333
167.694016	0.557518	57.450000
167.217576	0.318708	57.466667
166.901625	0.021686	57.483333
165.783090	0.224003	57.500000
164.504065	0.484848	57.516667
164.348465	0.336558	57.533333
162.909089	0.449376	57.550000
161.950905	0.800135	57.566667
162.276771	0.476653	57.583333
160.676907	0.648328	57.600000
161.644591	0.297555	57.616667
160.847172	0.177166	57.633333
159.568285	0.232425	57.650000
159.573173	0.026286	57.666667
157.170862	0.491204	57.683333
157.015123	0.549672	57.700000
156.217565	0.636066	57.716667
155.419870	0.928411	57.733333
156.708808	0.048937	57.750000
155.429921	0.105226	57.766667
155.434946	-0.306016	57.783333
153.674454	0.131671	57.800000
152.074588	0.305560	57.816667
151.597870	0.480989	57.833333
150.639823	0.626513	57.850000
150.163105	0.801945	57.866667
150.970438	0.304282	57.883333
149.370572	0.478699	57.900000
150.177905	-0.018797	57.916667
148.578038	0.156003	57.933333
146.336078	0.769849	57.950000
146.822432	0.389553	57.966667
145.864384	0.535672	57.983333
145.227315	0.564888	58.000000
145.392828	0.097131	58.016667
143.150867	0.711413	58.033333
144.600019	0.185022	58.050000
142.518684	0.536473	58.066667
142.202593	0.449095	58.083333
141.886638	0.157541	58.100000
140.447123	0.479796	58.116667
140.933477	0.100201	58.133333
139.012630	0.394086	58.150000
138.214935	0.686562	58.166667
138.219821	0.482634	58.183333
136.780305	0.805237	58.200000
137.587774	0.105196	58.216667
135.827280	0.544997	58.233333
135.511188	0.458374	58.250000
136.479145	-0.299705	58.266667
133.595363	0.346510	58.283333
133.279271	0.260198	58.300000
131.679129	0.845240	58.316667
131.202412	1.020753	58.333333
132.491211	0.349462	58.350000
131.212320	0.411178	58.366667
131.217342	0.005086	58.383333
131.061875	-0.342261	58.400000
128.017467	0.566601	58.416667
127.701374	0.480857	58.433333
125.619765	1.241508	58.450000
126.266472	1.007461	58.466667
126.913314	0.570712	58.483333
125.473933	0.692107	58.500000
127.565313	-0.473578	58.516667
124.842154	-0.085841	58.533333
123.563262	-0.022077	58.550000
121.963255	0.361025	58.566667
119.720886	1.584538	58.583333
121.972620	0.563120	58.600000
121.496037	0.536587	58.616667
120.698612	0.425188	58.633333
121.506078	-0.271198	58.650000
119.103896	0.001468	58.666667
118.466825	0.033962	58.683333
116.385351	0.593271	58.700000
115.587520	1.087448	58.716667
116.715964	0.274731	58.733333
114.955468	0.717128	58.750000
115.923288	0.164588	58.766667
114.323416	0.347353	58.783333
113.044387	0.614433	58.800000
113.530739	0.237716	58.816667
112.251845	0.303934	58.833333
111.935751	0.220069	58.850000
110.977970	-0.031158	58.866667
108.093780	1.223272	58.883333
109.061465	0.872047	58.900000
108.745371	0.788377	58.916667
109.392346	0.152904	58.933333
109.236876	-0.189642	58.950000
107.316158	-0.088307	58.966667
107.000064	-0.171488	58.983333
104.597611	0.506483	59.000000
103.318447	0.974847	59.016667
103.965288	0.540527	59.033333
101.723189	1.360176	59.050000
105.098346	-0.069381	59.066667
103.659095	-0.142340	59.083333
102.861667	-0.249215	59.100000
101.101303	-0.004524	59.116667
98.859339	0.615626	59.133333
98.543110	0.732733	59.150000
98.227015	0.650315	59.166667
97.429319	0.943086	59.183333
98.878605	0.216627	59.200000
97.278731	0.403428	59.216667
97.283748	0.004911	59.233333
95.683872	0.192226	59.250000
94.404976	0.262683	59.266667
94.088747	0.379806	59.283333
92.649228	0.707945	59.300000
92.493488	0.766507	59.316667
92.980105	-0.005579	59.333333
91.059118	0.498523	59.350000
91.545469	0.124209	59.366667
89.945593	0.312827	59.383333
89.629497	0.231529	59.400000
88.992556	0.069119	59.416667
87.071436	0.771961	59.433333
87.878764	0.280860	59.450000
86.599734	0.551243	59.466667
85.320703	0.821698	59.483333
85.967542	0.389342	59.500000
84.688644	0.461986	59.516667
85.495972	-0.028777	59.533333
84.698673	-0.329201	59.550000
82.456707	0.293253	59.566667
81.819633	0.329990	59.583333
80.059001	0.974368	59.600000
79.903394	0.835436	59.616667
79.908144	0.835436	59.633333
81.517918	0.052171	59.650000
80.560130	-0.188359	59.666667
79.120873	-0.252577	59.683333
76.718417	0.429185	59.700000
76.081210	0.663532	59.716667
74.641557	1.190814	59.733333
75.288396	0.759503	59.750000
75.293278	0.562598	59.766667
75.619270	0.051782	59.783333
74.982458	-0.303869	59.800000
73.382579	-0.110980	59.816667
70.819502	0.826523	59.833333
70.824383	0.630106	59.850000
69.545088	1.295275	59.866667
71.636461	0.140770	59.883333
70.357560	0.216995	59.900000
69.560127	0.117684	59.916667
68.120736	0.253021	59.933333
67.644150	0.232887	59.950000
65.883650	0.681629	59.966667
66.209509	0.368614	59.983333
64.930477	0.641687	60.000000
66.058782	0.035770	60.016667
64.137923	0.347824	60.033333
63.661468	0.132683	60.050000
62.221945	0.464764	60.066667
61.745228	0.640589	60.083333
61.108152	0.679700	60.100000
61.273521	0.425828	60.116667
60.476087	0.328532	60.133333
60.320609	-0.002966	60.150000
58.239260	0.369144	60.166667
57.762542	0.544986	60.183333
56.643998	0.760454	60.200000
56.969857	0.448447	60.216667
57.777314	-0.234017	60.233333
55.695965	0.138877	60.250000
55.219507	-0.074161	60.266667
53.619495	0.317692	60.283333
52.179842	0.845284	60.300000
53.468636	0.182020	60.316667
51.387156	0.749882	60.333333
52.675950	0.086727	60.350000
51.878644	-0.202312	60.366667
49.797164	0.365899	60.383333
50.283511	-0.003851	60.400000
47.720693	0.546649	60.416667
47.404465	0.663907	60.433333
47.248855	0.528855	60.450000
46.772267	0.511125	60.466667
47.419233	-0.110469	60.483333
46.140328	-0.028238	60.500000
44.219337	0.482050	60.516667
44.384705	0.230157	60.533333
41.821757	0.975132	60.550000
42.949932	0.564680	60.566667
42.152494	0.471655	60.583333
41.996884	0.337278	60.600000
42.323000	-0.358697	60.616667
39.439073	0.504065	60.633333
39.283463	0.369996	60.650000
38.806874	0.353273	60.666667
37.367221	0.881059	60.683333
39.137610	-0.149141	60.700000
35.932833	0.638884	60.716667
36.579540	0.404300	60.733333
36.103080	0.195605	60.750000
33.861109	0.824453	60.766667
35.310391	0.104451	60.783333
33.389527	0.424099	60.800000
33.394534	0.040191	60.816667
32.757584	-0.108870	60.833333
29.873528	0.946897	60.850000
31.322809	0.227273	60.866667
29.401945	0.547839	60.883333
29.727674	0.430527	60.900000
30.214148	-0.128504	60.916667
27.169859	0.603188	60.933333
28.458650	-0.057403	60.950000
26.377296	0.322730	60.966667
25.739961	0.748566	60.983333
25.744967	0.366244	61.000000
24.144953	0.761800	61.016667
24.791787	0.336138	61.033333
24.796793	-0.045709	61.050000
21.912992	0.628678	61.066667
23.201784	-0.031368	61.083333
19.836387	1.010011	61.100000
21.927625	0.056735	61.116667
20.809205	0.086424	61.133333
18.246255	0.834754	61.150000
20.016514	-0.000977	61.166667
18.095520	0.512807	61.183333
17.940036	0.191095	61.200000
17.624062	-0.071704	61.216667
14.900622	0.735810	61.233333
16.349902	0.017799	61.250000
14.268419	0.590749	61.266667
14.112807	0.459631	61.283333
13.315364	0.373616	61.300000
11.715095	1.150088	61.316667
14.127437	-0.109406	61.333333
11.725102	0.391765	61.350000
11.088149	0.247689	61.366667
10.611685	0.045173	61.383333
8.530201	0.618899	61.400000
9.016545	0.253708	61.416667
7.256040	0.710202	61.433333
6.458217	1.192703	61.450000
8.228602	0.169063	61.466667
5.826266	0.671567	61.483333
6.954694	-0.116867	61.500000
5.354930	-0.095896	61.516667
3.754787	0.491043	61.533333
3.117833	0.348834	61.550000
2.320262	0.453909	61.566667
1.683055	0.688694	61.583333
2.650993	-0.040115	61.600000
-0.072575	0.957746	61.616667
2.179403	-0.428526	61.633333
