Thu Nov 07 15:26:45 2013

Number of Points = 3682
Depth (nm)	Load (µN)	Time (s)
-6.692718	0.181921	0.000000
-5.885011	0.077298	0.016667
-5.879496	-0.111534	0.033333
-6.676681	0.370749	0.050000
-5.708357	0.018608	0.066667
-6.505542	0.500946	0.083333
-5.216367	0.220383	0.100000
-5.531831	0.148810	0.116667
-5.526442	0.148810	0.133333
-4.718608	-0.144637	0.150000
-5.676156	0.207499	0.166667
-5.831384	0.455138	0.183333
-5.184038	0.220383	0.200000
-5.660118	0.396449	0.216667
-4.531432	0.174641	0.233333
-5.488980	0.526769	0.250000
-4.841634	0.292017	0.266667
-4.996736	0.350705	0.283333
-5.151837	0.409393	0.300000
-4.665108	0.422400	0.316667
-4.659847	0.611528	0.333333
-4.493969	0.552842	0.350000
-3.846497	0.128964	0.366667
-4.964661	0.728901	0.383333
-4.156827	0.435469	0.400000
-4.633033	0.800715	0.416667
-4.306540	0.494155	0.433333
-3.659195	0.259410	0.450000
-3.974785	0.376783	0.466667
-3.809035	0.507287	0.483333
-3.964136	0.565972	0.500000
-4.440216	0.742029	0.516667
-3.953487	0.755220	0.533333
-4.108715	1.003211	0.550000
-3.461370	0.768474	0.566667
-3.135003	0.651106	0.583333
-3.450594	0.768474	0.600000
-3.284843	0.899158	0.616667
-3.760923	1.075208	0.633333
-3.434557	0.957841	0.650000
-2.947828	0.971218	0.666667
-2.942440	0.971218	0.683333
-2.455584	0.795170	0.700000
-2.610685	0.853853	0.716667
-2.444808	0.795170	0.733333
-2.760398	0.912535	0.750000
-2.755137	1.102022	0.766667
-2.589260	1.043340	0.783333
-2.423510	1.174204	0.800000
-2.257632	1.115522	0.816667
-2.252244	1.115522	0.833333
-2.567962	1.422488	0.850000
-1.920617	1.187766	0.866667
-1.915229	1.187766	0.883333
-2.070330	1.246447	0.900000
-1.583474	1.070406	0.916667
-2.059681	1.436111	0.933333
-1.412336	1.201392	0.950000
-1.406948	1.201392	0.966667
-1.562176	1.449796	0.983333
-1.235810	1.332438	1.000000
-1.390911	1.391117	1.016667
-0.904055	1.215080	1.033333
-1.059156	1.273759	1.050000
-1.053896	1.463544	1.066667
-1.208997	1.522222	1.083333
-1.364098	1.580901	1.100000
-1.358837	1.770742	1.116667
-1.032598	1.843289	1.133333
-0.706231	1.725935	1.150000
-0.058886	1.491228	1.166667
-0.374477	1.608582	1.183333
-0.690195	1.915896	1.200000
-0.524317	1.857220	1.216667
-0.519057	2.047240	1.233333
-0.353179	1.988565	1.250000
-0.026813	1.871215	1.266667
0.299426	1.943946	1.283333
0.304814	1.943946	1.300000
0.310202	1.943946	1.316667
0.155101	2.002621	1.333333
0.000000	2.061295	1.350000
-0.315973	2.749231	1.366667
0.331245	2.704857	1.383333
1.138824	2.792312	1.400000
1.464935	3.056021	1.416667
2.432875	3.276032	1.433333
2.598369	3.789916	1.450000
3.245330	4.128342	1.466667
3.731673	4.717292	1.483333
4.378377	5.440151	1.500000
5.185826	5.722083	1.516667
5.993017	6.388681	1.533333
6.479357	6.981682	1.550000
7.286805	7.265786	1.566667
7.933633	7.801817	1.583333
8.580461	8.338804	1.600000
9.387778	8.818113	1.616667
10.034475	9.550523	1.633333
10.681430	9.896877	1.650000
11.488745	10.379067	1.666667
12.135700	10.726686	1.683333
12.782524	11.269183	1.700000
13.268859	11.871253	1.716667
14.236660	12.298432	1.733333
14.883613	12.648758	1.750000
15.369946	13.253457	1.766667
16.016767	13.800501	1.783333
16.984566	14.231297	1.800000
17.631517	14.584330	1.816667
18.117848	15.192613	1.833333
18.764535	15.939654	1.850000
19.411353	16.491487	1.866667
20.379281	16.730225	1.883333
21.186719	17.028101	1.900000
21.673046	17.640924	1.916667
22.159505	18.057230	1.933333
22.806320	18.613143	1.950000
23.292513	19.426527	1.966667
24.581417	19.552127	1.983333
25.067741	20.169489	2.000000
25.714687	20.530645	2.016667
26.361632	20.892345	2.033333
26.687465	21.570656	2.050000
27.494766	22.074241	2.066667
28.302065	22.578790	2.083333
28.949009	22.943197	2.100000
29.756308	23.449434	2.116667
30.403116	24.015180	2.133333
30.889435	24.640426	2.150000
31.857355	24.890461	2.166667
32.504297	25.258123	2.183333
32.990614	25.885766	2.200000
33.798044	26.196159	2.216667
34.123871	26.884005	2.233333
35.091519	27.540304	2.250000
35.417480	28.028442	2.266667
36.545751	28.426539	2.283333
37.192553	29.001163	2.300000
37.679002	29.432759	2.316667
38.486429	29.747872	2.333333
39.293855	30.063533	2.350000
39.940792	30.438249	2.366667
40.427239	30.872014	2.383333
40.913549	31.509706	2.400000
41.720838	32.031355	2.416667
42.528125	32.553968	2.433333
43.014434	33.194530	2.450000
43.821857	33.514731	2.466667
44.629280	33.835480	2.483333
45.276213	34.215263	2.500000
45.602031	34.917424	2.516667
46.730430	35.123032	2.533333
46.895758	35.885342	2.550000
47.703041	36.414701	2.566667
48.510461	36.739267	2.583333
49.157254	37.328787	2.600000
49.804184	37.713092	2.616667
50.450976	38.304293	2.633333
51.097905	38.689864	2.650000
51.744696	39.282747	2.666667
52.391486	39.876589	2.683333
53.038275	40.471390	2.700000
53.845553	41.008704	2.716667
54.652969	41.339270	2.733333
55.460524	41.462550	2.750000
55.947101	41.702960	2.766667
56.272909	42.418254	2.783333
57.080185	42.959194	2.800000
57.566481	43.617961	2.816667
58.213126	44.428153	2.833333
59.502007	44.587812	2.850000
59.988441	45.040141	2.866667
60.474735	45.702504	2.883333
61.282147	46.039259	2.900000
61.768581	46.493390	2.916667
62.575852	47.041327	2.933333
62.901795	47.555127	2.950000
63.548435	48.373714	2.966667
64.516192	48.866138	2.983333
65.323602	49.206896	3.000000

65.810033	49.664994	3.016667
66.456811	50.276630	3.033333
67.103588	50.889227	3.050000
67.750507	51.290919	3.066667
68.557772	51.846817	3.083333
69.204690	52.249780	3.100000
70.012096	52.594911	3.116667
70.819502	52.940592	3.133333
71.145583	53.249182	3.150000
71.631868	53.925453	3.166667
72.438987	54.699175	3.183333
73.246392	55.047403	3.200000
73.732675	55.726548	3.216667
74.379446	56.348291	3.233333
74.865727	57.029347	3.250000
75.833332	57.750724	3.266667
76.640590	58.317243	3.283333
77.287502	58.728182	3.300000
77.934414	59.139666	3.316667
78.741815	59.493357	3.333333
79.067604	60.238030	3.350000
80.035493	60.534663	3.366667
80.682404	60.948510	3.383333
81.168825	61.421229	3.400000
81.815734	61.836165	3.416667
82.301865	62.742777	3.433333
83.109117	63.317512	3.450000
83.595246	64.226808	3.466667
84.723475	64.687092	3.483333
85.209893	65.164139	3.500000
85.856800	65.583423	3.516667
86.664050	66.162750	3.533333
87.150467	66.641604	3.550000
87.797226	67.280918	3.566667
88.443839	68.139702	3.583333
89.090743	68.562429	3.600000
89.737354	69.423609	3.616667
90.544453	70.228005	3.633333
91.351845	70.594811	3.650000
91.838111	71.298410	3.666667
92.324377	72.002964	3.683333
93.131473	72.812167	3.700000
93.617589	73.739396	3.716667
94.264194	74.609853	3.733333
95.071434	75.202439	3.750000
95.718037	76.075593	3.766667
96.364639	76.950242	3.783333
97.171877	77.546204	3.800000
97.818775	77.979251	3.816667
98.465523	78.635144	3.833333
99.112122	79.514594	3.850000
99.919507	79.891589	3.866667
100.405764	80.608596	3.883333
100.891872	81.549864	3.900000
101.377828	82.716275	3.916667
102.184761	83.768402	3.933333
102.831203	84.880887	3.950000
103.477644	85.995518	3.966667
104.124234	86.887218	3.983333
104.770673	88.005784	4.000000
105.738088	89.010126	4.016667
106.384826	89.680891	4.033333
107.192053	90.294442	4.050000
107.838790	90.967136	4.066667
108.485374	91.867527	4.083333
108.971621	92.600549	4.100000
109.618204	93.503631	4.116667
110.264785	94.408209	4.133333
111.071855	95.256130	4.150000
111.718435	96.163705	4.166667
112.365013	97.072775	4.183333
112.851102	98.041479	4.200000
113.497525	99.182635	4.216667
114.143947	100.325936	4.233333
114.951010	101.183455	4.250000
115.436786	102.618978	4.266667
116.404336	103.421978	4.283333
117.050907	104.342710	4.300000
117.376344	105.612251	4.316667
118.343735	106.651527	4.333333
119.150792	107.519247	4.350000
119.797514	108.214508	4.366667
120.444079	109.143023	4.383333
120.930311	109.898529	4.400000
121.737364	110.771662	4.416667
122.383927	111.704373	4.433333
123.030488	112.638581	4.450000
123.516404	113.866118	4.466667
124.323295	114.979679	4.483333
125.130343	115.860919	4.500000
125.776900	116.801712	4.516667
126.263125	117.567034	4.533333
126.748877	119.039233	4.550000
127.555762	120.162494	4.566667
128.362646	121.287914	4.583333
129.009039	122.473514	4.600000
129.816078	123.366461	4.616667
130.302298	124.139917	4.633333
131.109177	125.272891	4.650000
131.755883	125.990739	4.666667
132.562760	127.127317	4.683333
133.209624	127.609424	4.700000
133.695681	128.626783	4.716667
134.342065	129.826387	4.733333
134.988607	130.789045	4.750000
135.795478	131.934617	4.766667
136.602828	132.363287	4.783333
136.928391	133.446086	4.800000
137.574769	134.654662	4.816667
138.381795	135.566858	4.833333
138.867682	136.837334	4.850000
139.674544	137.994059	4.866667
140.160428	139.268823	4.883333
141.127777	140.371926	4.900000
141.934960	141.050605	4.916667
142.581491	142.030653	4.933333
143.228184	142.769435	4.950000
143.553898	143.625016	4.966667
144.360753	144.794347	4.983333
145.167769	145.722186	5.000000
145.653643	147.011286	5.016667
146.460657	147.942431	5.033333
146.946692	148.990867	5.050000
147.753540	150.169918	5.066667
148.560715	150.860684	5.083333
149.046912	151.668179	5.100000
149.853921	152.606555	5.116667
150.339951	153.662176	5.133333
150.986304	154.907745	5.150000
151.793475	155.604316	5.166667
152.279337	156.911336	5.183333
153.246996	157.552476	5.200000
153.572367	158.920928	5.216667
154.540023	159.564496	5.233333
155.026047	160.630592	5.250000
155.512069	161.698178	5.266667
156.318735	163.149046	5.283333
157.286388	163.797714	5.300000
157.772407	164.870093	5.316667
158.579403	165.828346	5.333333
159.226076	166.596035	5.350000
159.712093	167.672608	5.366667
160.519253	168.384669	5.383333
161.005268	169.463939	5.400000
161.812259	170.429127	5.416667
162.458761	171.453608	5.433333
162.784115	172.846738	5.450000
163.751423	174.010919	5.466667
164.237432	175.098262	5.483333
165.365226	176.208663	5.500000
165.690744	177.357058	5.516667
166.658386	178.022742	5.533333
167.144561	178.862647	5.550000
167.469907	180.268654	5.566667
168.437206	181.445855	5.583333
169.244356	182.174135	5.600000
169.730186	183.528142	5.616667
170.697823	184.201123	5.633333
171.023846	184.595701	5.650000
171.509674	185.954022	5.666667
172.156160	187.001031	5.683333
172.641814	188.619389	5.700000
173.608931	190.067576	5.716667
174.255586	190.863471	5.733333
175.223045	191.802018	5.750000
175.709554	192.143254	5.766667
176.195546	193.256967	5.783333
177.002513	194.256828	5.800000
177.327669	195.947500	5.816667
177.813137	197.842058	5.833333
179.101393	198.933975	5.850000
179.587378	200.056956	5.866667
180.394514	200.806548	5.883333
180.720009	201.989866	5.900000
181.687283	203.204337	5.916667
182.173439	204.072821	5.933333
182.819559	205.667003	5.950000
183.466026	206.741651	5.966667
184.112318	208.079300	5.983333
184.758608	209.419104	6.000000
185.886538	210.326067	6.016667
186.051712	211.317667	6.033333
187.018975	212.547701	6.050000
187.504948	213.689557	6.066667
187.990567	215.359754	6.083333
188.797337	216.653860	6.100000
189.604106	217.950136	6.116667
190.250563	219.041615	6.133333
191.057330	220.341866	6.150000
191.543295	221.494201	6.166667
192.189571	222.855959	6.183333
192.996511	223.896517	6.200000
193.482296	225.319768	6.216667
194.128745	226.421165	6.233333
195.095992	227.675810	6.250000
195.582130	228.570964	6.266667
196.067730	230.269180	6.283333
196.874485	231.587475	6.300000
197.360261	233.022922	6.316667
198.166833	234.614096	6.333333
198.813094	235.996723	6.350000
199.459354	237.381508	6.366667
200.266282	238.441366	6.383333
201.073208	239.502741	6.400000
201.559157	240.680544	6.416667
202.365900	242.015451	6.433333
203.012335	243.139107	6.450000
203.659132	243.722118	6.466667
203.984225	245.505802	6.483333
204.951634	246.519109	6.500000
205.437212	248.250375	6.516667
206.404436	249.539788	6.533333
206.730070	250.515430	6.550000
207.536803	251.865875	6.566667
208.022374	253.606760	6.583333
208.829104	254.961892	6.600000
209.636016	256.045008	6.616667
210.282439	257.187020	6.633333
211.089349	258.273166	6.650000
211.575281	259.475565	6.666667
212.221700	260.622098	6.683333
213.189096	261.655423	6.700000
213.514721	262.643772	6.716667
214.000095	264.680676	6.733333
214.967301	265.995832	6.750000
215.453041	267.485167	6.766667
216.420245	268.804675	6.783333
217.066842	269.685562	6.800000
217.392090	271.237969	6.816667
218.037940	273.234759	6.833333
218.844649	274.620260	6.850000
219.651357	276.007934	6.866667
220.297950	276.896067	6.883333
220.944167	278.344650	6.900000
221.751059	279.457994	6.916667
222.237161	280.407035	6.933333
222.883187	282.141752	6.950000
223.690075	283.259936	6.966667
224.336474	284.436891	6.983333
224.982872	285.615355	7.000000
225.468592	287.134534	7.016667
226.275477	288.259072	7.033333
227.082549	289.102566	7.050000
227.568266	290.627153	7.066667
228.374957	292.039456	7.083333
228.860671	293.568353	7.100000
229.506871	295.042196	7.116667
230.474237	296.119523	7.133333
230.799458	297.711730	7.150000
231.766821	298.792397	7.166667
232.413590	299.418659	7.183333
232.899296	300.958723	7.200000
233.866848	301.757942	7.216667
234.031767	303.129935	7.233333
234.998742	304.790280	7.250000
235.805803	305.650568	7.266667
236.291695	306.913038	7.283333
236.938074	308.119865	7.300000
237.584452	309.328202	7.316667
238.230637	310.825902	7.333333
238.876820	312.325766	7.350000
239.362319	314.173532	7.366667
240.329282	315.852897	7.383333
240.814972	317.417070	7.400000
241.621637	318.869207	7.416667
242.589177	319.686273	7.433333
243.075446	320.385350	7.450000
243.721814	321.608777	7.466667
244.207888	322.600020	7.483333
244.853864	324.408352	7.500000
245.500229	325.636602	7.516667
246.146202	327.449974	7.533333
247.113345	328.859940	7.550000
247.599610	329.565745	7.566667
248.406459	330.743304	7.583333
249.213503	331.629416	7.600000
249.699570	332.630566	7.616667
250.185243	334.219633	7.633333
250.831403	335.753837	7.650000
251.798537	337.176193	7.666667
252.445089	338.125648	7.683333
252.931152	339.133076	7.700000
253.577109	340.969635	7.716667
254.223460	342.218136	7.733333
254.869414	344.059738	7.750000
255.676251	345.254889	7.766667
256.001424	346.918931	7.783333
257.128837	348.597228	7.800000
257.614894	349.614545	7.816667
258.261039	351.170804	7.833333
259.228558	352.019719	7.850000
259.553924	353.395389	7.866667
260.200065	354.957077	7.883333
261.167382	356.108353	7.900000
261.332056	357.844770	7.916667
262.298969	359.598238	7.933333
262.784817	360.925688	7.950000
263.751928	362.384071	7.966667
264.719842	362.643130	7.983333
264.724224	364.145175	8.000000
265.530843	365.665183	8.016667
265.855593	367.960632	8.033333
266.822495	369.730610	8.050000
267.789799	370.899239	8.066667
268.436127	372.183098	8.083333
269.082454	373.468470	8.100000
269.729185	374.149480	8.116667
270.054128	376.157411	8.133333
271.021224	377.637287	8.150000
271.506854	379.289803	8.166667
272.313460	380.830858	8.183333
273.120063	382.374095	8.200000
273.766586	383.366270	8.216667
274.573801	383.997458	8.233333
274.899142	385.410334	8.250000
275.384356	387.685388	8.266667
276.190748	389.544364	8.283333
276.997138	391.406298	8.300000
277.803938	392.656985	8.316667
278.450661	393.351381	8.333333
278.936277	395.025554	8.350000
279.582586	396.337240	8.366667
280.067786	398.631957	8.383333
281.034655	400.451538	8.400000
281.520472	401.825976	8.416667
282.166568	403.454603	8.433333
282.973151	405.028702	8.450000
283.619453	406.351569	8.466667
284.586729	407.562580	8.483333
284.912261	408.691202	8.500000
285.397863	410.385932	8.516667
286.204231	412.280844	8.533333
286.689622	414.292028	8.550000
287.656474	416.136195	8.566667
288.142279	417.528105	8.583333
289.109547	418.751612	8.600000
289.595350	420.146547	8.616667
290.401918	421.743182	8.633333
290.887509	423.455232	8.650000
291.694074	425.056224	8.666667
292.340360	426.401488	8.683333
292.986435	428.063080	8.700000
293.472020	429.783428	8.716667
294.439067	431.336199	8.733333
294.924861	432.745000	8.750000
295.570930	434.414921	8.766667
296.538185	435.657358	8.783333
297.023976	437.070993	8.800000
297.830954	438.055961	8.816667
298.156255	439.528860	8.833333
298.802105	441.525587	8.850000
299.287465	443.581781	8.866667
300.254500	445.152795	8.883333
301.061260	446.463656	8.900000
301.547042	447.889053	8.916667
302.192884	449.898435	8.933333
302.678236	451.967248	8.950000
303.484561	453.926035	8.966667
304.451587	455.510550	8.983333
304.937578	456.624581	9.000000
305.423139	458.382131	9.016667
306.229458	460.350661	9.033333
307.196694	461.621495	9.050000
307.682682	462.740860	9.066667
308.328940	464.127322	9.083333
308.974982	465.838217	9.100000
309.621239	467.228013	9.116667
310.106573	469.322936	9.133333
311.073802	470.603557	9.150000
311.559351	472.379191	9.166667
312.205385	474.100598	9.183333
312.690712	476.205616	9.200000
313.818207	477.762614	9.216667
314.143480	479.277865	9.233333
314.949996	480.951615	9.250000
315.756511	482.627554	9.266667
316.242268	484.091574	9.283333
317.048780	485.771520	9.300000
317.695242	486.855148	9.316667
318.180556	488.979133	9.333333
319.147772	490.280854	9.350000
319.473036	491.809343	9.366667
320.439809	493.771587	9.383333
320.925778	494.918335	9.400000
321.411085	497.054114	9.416667
322.377853	499.024003	9.433333
322.863598	500.505238	9.450000
323.188412	502.705266	9.466667
324.315218	505.289062	9.483333
324.961447	506.720381	9.500000
325.768163	508.096987	9.516667
326.414612	509.199375	9.533333
327.060838	510.634962	9.550000
327.707285	511.739552	9.566667
328.353510	513.177880	9.583333
328.999509	514.950842	9.600000
329.806666	515.669545	9.616667
330.292176	517.501985	9.633333
330.938172	519.280405	9.650000
331.423679	521.117175	9.666667
332.390423	523.122392	9.683333
333.036864	524.237481	9.700000
333.201167	526.528152	9.716667
334.167681	528.876927	9.733333
334.974156	530.612992	9.750000
335.459654	532.463499	9.766667
336.265900	534.540983	9.783333
336.911882	536.340078	9.800000
337.879064	537.691387	9.816667
338.525950	538.142587	9.833333
339.011668	539.664347	9.850000
339.497158	541.526099	9.866667
339.982193	544.067871	9.883333
341.109630	545.710402	9.900000
341.756059	546.844033	9.916667
342.402258	548.318505	9.933333
343.209173	549.398294	9.950000
343.373680	551.384093	9.966667
344.019192	553.885731	9.983333
344.825188	556.335195	10.000000
345.631869	557.763054	10.016667
346.599495	558.452487	10.033333
346.764225	560.106823	10.050000
347.570444	562.223817	10.066667
348.216634	563.713782	10.083333
348.862132	566.235229	10.100000
349.668806	567.673171	10.116667
350.314992	569.168608	10.133333
350.800459	571.065855	10.150000
351.606899	572.853380	10.166667
352.092363	574.754970	10.183333
353.059056	576.836414	10.200000
353.545211	577.705411	10.216667
354.190695	580.249083	10.233333
354.997128	582.047557	10.250000
355.321864	584.362809	10.266667
356.288549	586.457445	10.283333
356.934722	587.971411	10.300000
357.741382	589.431031	10.316667
358.548274	590.543970	10.333333
358.552261	592.634162	10.350000
359.518704	595.089307	10.366667
360.164638	596.961138	10.383333
360.970823	599.129089	10.400000
361.938197	600.193814	10.416667
362.585065	600.670736	10.433333
362.910489	601.960230	10.450000
363.556417	603.840470	10.466667
364.041621	606.129832	10.483333
365.008285	608.254776	10.500000
365.493485	610.550043	10.516667
366.299658	612.736715	10.533333
366.785327	614.332308	10.550000
367.430772	616.932999	10.566667
368.397426	619.072415	10.583333
368.722367	621.083738	10.600000
369.849742	622.818600	10.616667
370.335642	624.069276	10.633333
371.142278	625.564354	10.650000
371.788425	627.116674	10.666667
372.434810	628.315070	10.683333
373.080718	630.225888	10.700000
373.726862	631.782783	10.716667
373.891067	634.221087	10.733333
374.857227	637.097920	10.750000
375.663855	638.605530	10.766667
376.309515	640.885697	10.783333
377.116140	642.396982	10.800000
377.601789	644.021062	10.816667
378.408172	645.894087	10.833333
378.893820	647.521503	10.850000
379.378985	649.869149	10.866667
380.345368	652.412824	10.883333
380.991740	653.630539	10.900000
381.798357	655.154068	10.916667
382.604973	656.679138	10.933333
382.769881	658.066999	10.950000
383.736740	659.900571	10.966667
384.061407	662.320276	10.983333
385.028020	664.520755	11.000000
385.674143	666.110228	11.016667
386.320022	668.064028	11.033333
386.805412	670.075526	11.050000
387.772749	671.195701	11.066667
388.258137	673.210847	11.083333
389.064497	675.117182	11.100000
389.549882	677.136681	11.116667
390.195752	679.102877	11.133333
390.680889	681.491971	11.150000
391.486999	683.773103	11.166667
392.453838	685.635686	11.183333
393.099948	687.244971	11.200000
393.906789	688.433724	11.216667
394.392656	689.734325	11.233333
394.557055	691.881013	11.250000
395.523396	694.488029	11.266667
396.008274	697.265126	11.283333
397.135590	699.087389	11.300000
397.942426	700.285016	11.316667
398.107065	702.074153	11.333333
399.073643	704.326778	11.350000
399.398519	706.433955	11.366667
400.365094	708.692128	11.383333
400.850454	710.748667	11.400000
401.656786	712.696726	11.416667
402.302382	715.073659	11.433333
403.109209	716.283115	11.450000
403.594563	718.348020	11.466667
404.240653	719.987494	11.483333
404.726004	722.056391	11.500000
405.531829	724.763026	11.516667
406.177163	727.528802	11.533333
407.144221	729.065988	11.550000
407.790555	730.341056	11.566667
408.436636	731.991521	11.583333
409.082717	733.643515	11.600000
409.729049	734.922031	11.616667
410.053902	737.062527	11.633333
410.698973	740.222104	11.650000
411.505032	742.578667	11.666667
412.150602	744.993399	11.683333
413.117396	746.923654	11.700000
413.763468	748.589066	11.716667
414.249052	750.311167	11.733333
415.055609	751.924481	11.750000
415.540938	754.027925	11.766667
416.186498	756.457122	11.783333
416.671569	758.944407	11.800000
417.637845	761.648915	11.816667
418.444395	763.272339	11.833333
418.929970	765.007499	11.850000
419.736518	766.634000	11.866667
420.221836	768.753078	11.883333
420.867384	771.200546	11.900000
421.673673	773.214217	11.916667
421.998243	775.777310	11.933333
422.803760	778.943358	11.950000
423.770530	780.910044	11.966667
424.256095	782.660687	11.983333
425.062632	784.302826	12.000000
425.548195	786.056517	12.016667
426.193471	788.909570	12.033333
427.160234	790.886950	12.050000
427.324561	793.141422	12.066667
428.290805	795.894225	12.083333
428.936848	797.602975	12.100000
429.582890	799.313257	12.116667
430.228412	801.798123	12.133333
430.713447	804.340882	12.150000
431.519193	807.164211	12.166667
432.325196	809.603501	12.183333
432.971231	811.324157	12.200000
433.617005	813.434875	12.216667
434.101769	816.380610	12.233333
435.228999	818.331833	12.250000
435.393308	820.614427	12.266667
436.520535	822.570090	12.283333
437.006076	824.356899	12.300000
437.491615	826.145225	12.316667
438.458090	828.552758	12.333333
438.943889	829.953336	12.350000
439.268152	832.976627	12.366667
440.234358	835.784586	12.383333
440.719365	838.368009	12.400000
441.846580	840.342178	12.416667
442.492861	841.696049	12.433333
442.978654	843.105665	12.450000
443.303168	845.752769	12.466667
443.948390	848.687790	12.483333
444.914317	851.912236	12.500000
445.720814	853.614545	12.516667
446.045055	856.669647	12.533333
447.011505	859.113576	12.550000
447.657512	860.876708	12.566667
448.463738	862.983559	12.583333
449.270761	863.901154	12.600000
449.274286	866.682075	12.616667
450.079975	869.590600	12.633333
450.725174	872.557646	12.650000
451.530858	875.473946	12.666667
452.337342	877.196221	12.683333
452.983071	879.374195	12.700000
453.789820	880.700016	12.716667
454.435814	882.481520	12.733333
454.760298	885.174670	12.750000
455.727262	886.850700	12.766667
455.730501	890.059315	12.783333
456.856872	893.291741	12.800000
457.663077	895.431277	12.816667
458.308793	897.627547	12.833333
459.115264	899.368598	12.850000
459.600761	901.220208	12.866667
460.246203	903.825914	12.883333
460.891914	906.030611	12.900000
461.537352	908.641849	12.916667
462.504304	910.337669	12.933333
462.668822	912.307335	12.950000
463.473927	916.087815	12.966667
464.440602	918.195716	12.983333
465.086848	919.602226	13.000000
465.893579	920.955312	13.016667
466.218850	922.472638	13.033333
466.703516	925.564591	13.050000
467.509426	928.144037	13.066667
468.154573	931.188861	13.083333
469.121512	932.903561	13.100000
469.445957	935.654649	13.116667
470.412345	938.191294	13.133333
470.897821	940.074894	13.150000
471.543233	942.725354	13.166667
472.349679	944.503972	13.183333
472.834326	947.624506	13.200000
473.640494	949.818126	13.216667
474.286174	952.068248	13.233333
474.931853	954.320569	13.250000
475.898503	956.466561	13.266667
476.384245	957.952723	13.283333
477.190959	959.331365	13.300000
477.515937	961.286617	13.316667
478.321819	963.907189	13.333333
478.646240	966.693423	13.350000
479.451840	969.734148	13.366667
480.257716	972.364112	13.383333
481.063868	974.582052	13.400000
481.549324	976.495237	13.416667
482.194708	979.187088	13.433333
483.001134	980.995610	13.450000
483.325263	984.217348	13.466667
484.131128	986.863573	13.483333
485.097756	989.041374	13.500000
485.583205	990.966149	13.516667
486.228578	993.674212	13.533333
487.034996	995.494450	13.550000
487.681208	996.951761	13.566667
488.005604	999.774834	13.583333
488.489641	1003.805164	13.600000
489.777231	1005.891126	13.616667
490.423157	1007.775282	13.633333
491.069081	1009.660979	13.650000
491.394032	1011.656265	13.666667
492.039108	1014.808649	13.683333
493.005436	1017.435165	13.700000
493.651072	1019.750578	13.716667
494.296424	1022.490662	13.733333
495.263313	1024.280069	13.750000
495.587973	1026.710028	13.766667
496.554859	1028.502855	13.783333
497.040570	1030.035350	13.800000
497.525712	1032.416841	13.816667
498.171055	1035.171042	13.833333
499.137937	1036.970708	13.850000
499.462589	1039.412691	13.866667
500.429183	1041.641257	13.883333
500.753547	1044.513501	13.900000
501.559366	1047.227068	13.916667
502.526242	1049.036360	13.933333
502.690114	1051.970514	13.950000
503.335442	1054.746062	13.966667
504.301167	1058.272873	13.983333
504.946777	1060.626834	14.000000
505.753160	1062.500477	14.016667
506.560116	1063.517809	14.033333
506.884751	1065.984541	14.050000
507.369583	1068.829277	14.066667
508.175096	1071.999541	14.083333
508.981184	1074.312612	14.100000
509.626496	1077.112534	14.116667
510.272384	1079.052895	14.133333
511.078467	1081.372620	14.150000
511.242316	1084.341386	14.166667
512.529565	1086.937165	14.183333
512.854475	1088.992604	14.200000
513.821039	1091.267870	14.216667
514.306723	1092.839636	14.233333
514.790955	1096.580932	14.250000
515.597027	1098.916888	14.266667
516.242612	1101.308708	14.283333
517.209168	1103.595478	14.300000
518.016111	1104.632460	14.316667
518.180818	1106.319832	14.333333
518.986593	1109.100824	14.350000
519.471393	1111.992011	14.366667
520.276871	1115.215657	14.383333
521.083518	1116.695020	14.400000
521.568606	1119.156986	14.416667
522.374371	1121.951719	14.433333
522.859457	1124.418437	14.450000
523.504438	1127.710794	14.466667
524.310786	1129.636700	14.483333
524.795278	1132.988908	14.500000
525.761519	1135.744727	14.516667
526.247185	1137.343766	14.533333
526.892452	1140.211293	14.550000
527.698498	1142.587542	14.566667
528.344351	1144.578361	14.583333
529.150099	1147.400165	14.600000
529.636056	1148.564631	14.616667
530.120533	1151.939724	14.633333
530.926571	1154.326701	14.650000
531.411340	1157.265616	14.666667
532.377564	1160.047340	14.683333
533.023112	1162.495093	14.700000
533.507875	1165.442532	14.716667
534.474391	1167.788348	14.733333
534.799260	1169.904943	14.750000
535.765475	1172.700054	14.766667
536.411613	1174.268155	14.783333
536.735882	1177.281294	14.800000
537.702390	1179.637894	14.816667
538.187441	1182.156615	14.833333
539.153946	1184.517685	14.850000
539.800079	1186.092983	14.866667
540.124639	1188.670853	14.883333
540.930355	1191.539108	14.900000
541.415399	1194.068462	14.916667
541.899538	1197.946431	14.933333
542.865432	1201.220245	14.950000
543.349867	1204.657589	14.966667
544.637331	1206.932327	14.983333
545.123572	1207.673356	15.000000
545.769091	1210.163835	15.016667
546.254728	1211.807661	15.033333
546.739759	1214.354978	15.050000
547.545154	1217.701669	15.066667
548.190364	1220.653161	15.083333
548.996361	1223.101928	15.100000
549.963449	1224.594062	15.116667
550.127502	1227.258961	15.133333
550.933191	1230.167237	15.150000
551.418516	1232.276753	15.166667
552.062802	1236.606486	15.183333
552.868485	1239.524200	15.200000
553.513681	1242.497963	15.216667
554.479845	1245.368682	15.233333
555.286744	1246.471176	15.250000
555.451395	1248.242445	15.266667
556.096278	1251.681878	15.283333
556.741465	1254.668086	15.300000
557.707621	1257.551355	15.316667
558.354031	1258.712315	15.333333
558.838728	1261.758796	15.350000
559.644393	1264.702375	15.366667
559.968601	1267.807742	15.383333
561.095233	1270.651502	15.400000
561.741023	1272.737541	15.416667
562.226019	1275.338033	15.433333
563.031983	1277.834958	15.450000
563.677770	1279.926248	15.466667
564.162452	1282.994084	15.483333
564.807618	1286.012046	15.500000
565.291987	1289.547831	15.516667
566.579090	1292.360923	15.533333
566.904209	1294.105592	15.550000
567.710163	1296.618823	15.566667
568.194834	1299.703312	15.583333
568.840299	1302.274132	15.600000
569.806423	1305.205870	15.616667
570.291711	1307.369659	15.633333
570.936860	1310.412085	15.650000
571.903601	1312.421356	15.666667
572.389198	1314.124817	15.683333
573.034655	1316.708220	15.700000
573.519937	1318.880315	15.716667
574.003968	1322.920392	15.733333
574.808967	1326.860013	15.750000
575.614902	1329.401413	15.766667
576.098924	1333.454596	15.783333
577.065340	1335.948908	15.800000
577.389814	1338.655958	15.816667
578.195114	1342.145990	15.833333
578.679755	1345.275305	15.850000
579.645220	1349.190416	15.866667
580.290972	1351.332588	15.883333
580.936408	1353.947285	15.900000
581.902813	1356.459111	15.916667
582.549194	1357.663334	15.933333
582.873656	1360.388669	15.950000
583.679571	1362.958629	15.966667
584.325317	1365.110723	15.983333
585.292349	1366.686520	16.000000
585.456321	1369.472054	16.016667
586.261914	1372.523409	16.033333
586.907020	1375.630251	16.050000
587.391639	1378.792540	16.066667
587.875302	1383.382664	16.083333
589.001538	1386.817991	16.100000
589.325665	1390.043332	16.116667
590.613019	1392.480949	16.133333
590.777296	1394.810881	16.150000
591.743358	1397.834410	16.166667
592.389087	1400.010903	16.183333
593.034816	1402.188948	16.200000
593.841028	1404.316208	16.216667
594.487075	1406.019147	16.233333
594.811510	1408.784720	16.250000
595.295787	1412.458096	16.266667
596.422322	1415.446702	16.283333
596.907237	1418.167656	16.300000
597.552313	1421.318745	16.316667
598.358195	1423.939952	16.333333
599.003590	1426.615644	16.350000
599.648983	1429.293555	16.366667
599.973083	1432.559839	16.383333
600.938797	1436.102446	16.400000
601.262569	1439.857773	16.416667
602.388439	1443.839295	16.433333
603.194956	1445.511943	16.450000
603.840987	1447.237770	16.466667
604.326209	1449.500761	16.483333
604.971914	1451.713151	16.500000
605.296000	1455.000751	16.516667
606.100562	1459.590788	16.533333
606.906422	1462.243554	16.550000
607.712281	1464.898563	16.566667
608.518465	1467.069392	16.583333
609.164814	1468.320579	16.600000
609.650352	1470.111196	16.616667
609.652150	1475.469809	16.633333
610.777990	1479.495314	16.650000
611.422373	1483.681856	16.666667
612.549190	1486.250330	16.683333
613.356019	1487.457450	16.700000
613.681393	1488.821095	16.716667
614.165940	1492.091701	16.733333
614.971782	1494.771276	16.750000
615.455996	1498.537973	16.766667
616.260848	1502.695770	16.783333
617.067014	1504.892445	16.800000
617.391066	1508.229920	16.816667
618.517869	1510.818713	16.833333
619.003062	1513.124771	16.850000
619.809223	1515.328634	16.866667
620.294744	1517.144717	16.883333
620.618457	1520.987229	16.900000
621.744922	1524.080484	16.916667
622.229778	1526.889753	16.933333
623.196418	1529.051167	16.950000
623.360633	1531.473161	16.966667
624.165458	1535.670831	16.983333
624.971277	1538.385757	17.000000
625.295308	1541.754400	17.016667
626.421760	1544.867295	17.033333
626.906937	1547.196143	17.050000
627.229963	1552.065295	17.066667
628.195590	1555.737473	17.083333
628.840580	1559.018490	17.100000
629.646052	1562.250848	17.116667
630.773494	1563.885255	17.133333
631.098848	1565.279628	17.150000
631.744501	1567.570389	17.166667
632.390153	1569.862708	17.183333
632.714164	1573.260401	17.200000
633.358807	1577.058632	17.216667
634.002776	1581.863505	17.233333
634.968382	1585.567386	17.250000
635.614026	1587.871441	17.266667
636.258995	1591.182207	17.283333
637.065121	1593.438451	17.300000
637.549940	1596.302595	17.316667
638.033745	1600.680193	17.333333
638.999676	1603.899581	17.350000
639.484489	1606.771807	17.366667
640.611915	1608.430496	17.383333
640.775757	1611.409367	17.400000
641.741681	1614.638792	17.416667
642.548136	1616.404726	17.433333
642.711635	1619.896102	17.450000
643.678232	1622.119985	17.466667
644.002212	1625.565055	17.483333
644.967447	1629.822612	17.500000
645.773556	1632.104470	17.516667
645.937045	1635.609858	17.533333
646.902273	1639.879066	17.550000
647.387067	1642.779314	17.566667
648.352289	1647.056854	17.583333
649.158732	1648.839893	17.600000
649.483038	1651.798457	17.616667
650.449279	1654.554099	17.633333
651.095578	1655.881505	17.650000
651.740848	1658.743087	17.666667
652.386460	1661.095275	17.683333
652.710416	1664.575396	17.700000
653.676307	1667.853600	17.716667
654.321915	1670.211685	17.733333
655.128006	1672.520134	17.750000
655.613816	1673.905962	17.766667
655.776247	1678.990037	17.783333
656.580267	1684.389922	17.800000
657.384627	1689.282076	17.816667
658.029190	1693.200207	17.833333
659.155894	1695.936977	17.850000
659.962319	1697.745739	17.866667
660.447430	1700.174152	17.883333
661.093717	1701.519574	17.900000
661.417649	1705.035601	17.916667
662.704830	1707.730816	17.933333
663.030146	1709.181381	17.950000
663.835873	1712.033152	17.966667
664.160494	1714.521892	17.983333
664.644555	1718.517240	18.000000
665.770898	1721.793282	18.016667
666.095166	1724.807691	18.033333
667.061021	1728.140398	18.050000
667.385286	1731.159577	18.066667
668.029121	1736.162434	18.083333
668.995319	1738.983769	18.100000
669.640547	1741.909192	18.116667
670.285423	1745.358931	18.133333
671.413150	1746.569360	18.150000
671.738106	1748.557311	18.166667
672.544163	1750.916468	18.183333
672.868416	1753.952954	18.200000
673.352450	1757.988050	18.216667
674.479120	1760.775514	18.233333
674.963853	1763.768526	18.250000
675.609068	1766.712946	18.266667
676.254281	1769.659597	18.283333
676.738657	1773.184794	18.300000
677.543647	1777.137493	18.316667
678.348986	1780.567638	18.333333
678.833709	1783.575408	18.350000
679.639398	1786.483955	18.366667
680.123764	1790.023762	18.383333
681.250771	1792.307821	18.400000
681.735842	1794.796221	18.416667
682.220912	1797.286165	18.433333
683.026594	1800.205216	18.450000
683.510952	1803.757111	18.466667
684.477114	1806.630389	18.483333
684.962534	1808.597796	18.500000
685.607371	1812.106416	18.516667
686.252561	1815.087297	18.533333
686.736555	1819.183288	18.550000
687.541870	1822.650390	18.566667
688.025858	1826.753717	18.583333
688.991296	1830.709354	18.600000
689.636120	1834.236951	18.616667
690.282014	1836.167499	18.633333
690.765994	1840.284075	18.650000
691.571297	1843.769401	18.666667
692.215755	1847.842859	18.683333
693.342738	1850.163764	18.700000
693.668018	1851.668053	18.716667
694.474031	1854.092397	18.733333
695.119919	1856.033014	18.750000
695.604963	1858.561030	18.766667
696.089287	1862.163320	18.783333
696.894577	1865.667844	18.800000
697.378537	1869.813445	18.816667
698.344306	1873.274121	18.833333
698.668138	1876.939204	18.850000
699.633542	1880.944616	18.866667
700.278338	1884.515503	18.883333
700.923492	1887.549934	18.900000
701.729129	1890.536327	18.916667
702.535126	1892.984829	18.933333
703.020517	1894.995028	18.950000
703.986634	1897.936839	18.966667
704.151056	1900.050014	18.983333
704.956324	1903.587186	19.000000
705.601832	1906.094090	19.016667
706.085766	1910.279039	19.033333
707.051875	1913.232145	19.050000
707.536532	1916.338029	19.066667
708.180943	1920.482647	19.083333
708.664868	1924.681324	19.100000
709.309273	1928.833784	19.116667
710.435492	1932.295070	19.133333
710.920139	1935.414619	19.150000
711.564538	1939.577456	19.166667
712.531364	1941.460117	19.183333
713.016008	1944.586350	19.200000
713.821983	1947.068148	19.216667
714.307356	1949.104757	19.233333
714.791995	1952.236563	19.250000
715.758084	1955.220584	19.266667
716.081503	1959.502730	19.283333
717.047220	1963.040418	19.300000
717.853555	1964.984835	19.316667
718.338555	1967.579139	19.333333
718.822817	1971.273681	19.350000
719.146226	1975.570988	19.366667
720.110828	1980.773431	19.383333
720.754828	1985.530742	19.400000
721.559678	1989.691612	19.416667
722.526488	1991.599073	19.433333
723.011477	1994.209140	19.450000
723.656208	1997.875797	19.466667
724.301308	2000.992594	19.483333
725.107260	2003.508642	19.500000
725.913581	2005.472840	19.516667
726.559419	2007.487852	19.533333
727.044773	2009.553652	19.550000
727.689866	2012.679107	19.566667
728.013249	2017.015658	19.583333
728.978934	2020.601987	19.600000
729.463911	2023.229458	19.616667
730.107881	2028.032375	19.633333
730.752593	2031.727250	19.650000
731.074844	2037.752395	19.666667
732.200254	2042.421257	19.683333
732.844584	2046.685876	19.700000
733.489286	2050.395847	19.716667
734.455327	2053.450726	19.733333
735.261633	2055.439009	19.750000
736.068687	2056.309610	19.766667
736.393917	2057.888649	19.783333
736.717271	2062.267319	19.800000
737.682931	2065.891314	19.816667
738.006656	2069.716467	19.833333
738.971559	2074.469179	19.850000
739.777482	2077.029278	19.866667
740.101201	2080.863442	19.883333
740.905990	2085.114752	19.900000
741.550671	2088.856447	19.916667
742.194595	2093.728125	19.933333
743.000509	2096.299521	19.950000
743.484323	2100.664008	19.966667
744.289478	2104.368877	19.983333
744.934528	2107.561019	20.000000
745.740058	2110.706059	20.016667
746.546345	2112.721788	20.033333
746.709941	2116.067921	20.050000
747.996917	2119.071057	20.066667
748.322132	2120.672110	20.083333
748.805930	2125.059319	20.100000
749.611453	2128.216796	20.116667
749.773519	2133.845450	20.133333
750.898861	2138.616061	20.150000
751.543894	2141.832105	20.166667
752.509509	2145.521395	20.183333
752.994820	2147.652031	20.200000
753.318883	2150.972804	20.216667
754.122864	2156.430371	20.233333
754.927989	2160.180627	20.250000
755.572629	2163.983068	20.266667
756.860731	2165.304900	20.283333
756.864587	2167.592124	20.300000
757.830572	2170.730195	20.316667
758.315107	2174.017796	20.333333
758.799640	2177.307615	20.350000
759.604754	2181.074967	20.366667
760.249767	2184.320577	20.383333
760.572659	2189.389254	20.400000
761.537864	2193.691978	20.416667
762.182486	2197.521380	20.433333
762.987975	2200.729195	20.450000
763.472110	2204.613208	20.466667
764.277209	2208.402356	20.483333
764.922596	2211.089803	20.500000
765.567209	2214.933122	20.516667
766.372689	2218.152982	20.533333
767.178555	2220.797202	20.550000
767.663455	2223.540757	20.566667
768.469319	2226.188150	20.583333
768.632864	2229.611348	20.600000
769.437173	2234.579323	20.616667
770.081773	2238.441346	20.633333
770.725593	2243.467021	20.650000
771.691543	2246.657659	20.666667
772.175655	2250.578004	20.683333
773.141991	2253.192076	20.700000
773.626878	2255.953968	20.716667
774.110984	2259.881686	20.733333
774.916054	2263.715007	20.750000
775.400156	2267.648767	20.766667
776.365313	2272.023032	20.783333
777.171941	2273.530607	20.800000
777.495946	2276.936724	20.816667
778.140916	2280.247772	20.833333
778.784316	2285.900801	20.850000
779.589372	2289.754662	20.866667
780.073068	2294.294675	20.883333
781.038601	2298.106516	20.900000
781.361810	2302.702460	20.916667
782.488215	2305.885081	20.933333
782.972689	2309.264072	20.950000
783.939003	2311.911852	20.966667
784.263780	2314.167013	20.983333
785.069215	2317.454656	21.000000
785.553683	2320.841497	21.016667
786.198238	2324.771397	21.033333
786.842396	2329.294103	21.050000
787.969184	2331.904942	21.066667
788.293955	2334.169052	21.083333
789.099777	2336.879599	21.100000
789.262480	2341.558416	21.116667
790.227196	2346.590955	21.133333
790.710858	2351.181351	21.150000
791.515085	2356.271715	21.166667
792.320501	2359.587584	21.183333
792.965036	2363.547493	21.200000
793.932124	2365.038639	21.216667
794.417368	2367.269120	21.233333
794.740934	2371.331690	21.250000
795.385064	2375.895592	21.266667
796.350554	2379.771715	21.283333
796.995877	2382.556049	21.300000
797.479917	2386.582048	21.316667
798.124438	2390.562888	21.333333
799.089921	2394.450469	21.350000
799.574755	2397.291108	21.366667
800.379753	2401.232119	21.383333
800.863783	2405.272416	21.400000
801.187330	2409.363812	21.416667
801.990716	2415.709902	21.433333
802.955784	2420.216358	21.450000
803.439805	2424.270874	21.466667
804.565753	2428.136359	21.483333
805.050978	2430.394619	21.500000
805.856764	2433.158876	21.516667
806.342390	2434.818200	21.533333
806.826403	2438.884060	21.550000
807.470897	2442.904982	21.566667
808.114985	2447.531437	21.583333
808.919553	2452.113937	21.600000
809.725330	2454.890219	21.616667
810.209738	2458.367525	21.633333
811.336478	2461.051560	21.650000
811.822097	2462.720211	21.666667
812.306907	2465.598283	21.683333
812.630018	2470.340366	21.700000
813.273684	2475.596178	21.716667
814.077829	2480.809184	21.733333
815.203747	2484.718596	21.750000
815.367585	2487.704000	21.766667
816.653575	2492.178245	21.783333
817.139595	2493.249713	21.800000
817.462690	2498.015414	21.816667
818.589414	2500.721648	21.833333
818.592357	2504.371905	21.850000
819.557373	2508.956220	21.866667
820.040941	2513.687521	21.883333
821.166433	2518.232215	21.900000
821.812113	2520.482278	21.916667
822.136011	2524.049730	21.933333
822.940943	2528.087627	21.950000
823.746283	2531.517151	21.966667
824.230658	2535.044082	21.983333
825.196477	2538.430600	22.000000
825.198993	2542.717166	22.016667
826.163576	2547.947701	22.033333
826.968907	2551.390051	22.050000
827.774648	2554.220855	22.066667
828.419907	2557.100735	22.083333
828.904682	2560.029653	22.100000
829.710008	2563.479996	22.116667
830.194781	2566.412360	22.133333
830.677491	2572.423979	22.150000
831.803775	2575.787447	22.166667
831.966755	2580.053959	22.183333
832.931727	2584.703581	22.200000
833.576975	2587.599811	22.216667
834.381875	2591.685587	22.233333
835.188015	2593.920316	22.250000
835.673606	2595.632530	22.266667
835.996228	2601.103632	22.283333
837.121670	2605.724127	22.300000
837.284635	2610.012545	22.316667
838.409656	2615.260701	22.333333
838.894827	2617.600106	22.350000
839.699296	2622.329141	22.366667
840.505427	2624.577197	22.383333
840.990179	2627.542054	22.400000
841.634994	2631.083078	22.416667
842.118492	2635.917944	22.433333
842.762053	2641.332410	22.450000
843.727825	2644.787826	22.466667
844.212152	2648.386818	22.483333
845.177503	2652.470788	22.500000
845.662663	2654.826054	22.516667
846.146148	2659.680733	22.533333
847.111913	2663.147981	22.550000
847.435331	2667.431061	22.566667
848.400673	2671.529172	22.583333
849.045889	2674.471727	22.600000
849.529363	2679.342763	22.616667
850.495119	2682.822587	22.633333
851.142013	2683.261970	22.650000
851.786804	2686.838392	22.666667
852.432015	2689.789197	22.683333
852.594097	2695.395348	22.700000
853.398101	2700.818897	22.716667
854.042042	2705.664882	22.733333
854.845617	2711.727939	22.750000
855.973108	2713.290594	22.766667
856.136443	2717.026196	22.783333
857.102183	2720.530055	22.800000
857.746959	2724.129771	22.816667
858.230829	2728.410213	22.833333
859.197835	2730.025257	22.850000
859.360739	2734.403543	22.866667
860.164294	2740.496570	22.883333
860.808638	2744.742036	22.900000
861.773517	2749.531079	22.916667
862.580036	2751.199716	22.933333
862.904262	2754.277528	22.950000
863.869986	2757.805079	22.966667
864.355542	2759.569726	22.983333
864.356674	2765.922004	23.000000
865.481170	2771.954255	23.016667
866.125071	2776.859069	23.033333
867.250841	2780.991183	23.050000
867.896872	2782.716535	23.066667
868.381568	2785.763981	23.083333
869.348561	2787.397893	23.100000
869.673202	2789.856364	23.116667
869.996559	2794.230786	23.133333
870.639592	2800.432055	23.150000
871.121711	2807.325543	23.166667
872.407518	2812.073654	23.183333
873.053543	2813.808870	23.200000
873.859190	2816.779520	23.216667
874.504785	2819.157203	23.233333
874.668077	2822.957430	23.250000
875.632912	2827.811559	23.266667
876.116302	2832.808677	23.283333
876.921081	2837.074430	23.300000
877.887202	2840.010893	23.316667
878.211828	2842.490804	23.333333
879.016603	2846.763657	23.350000
879.661758	2849.797772	23.366667
880.306048	2854.122160	23.383333
880.790720	2857.206279	23.400000
881.595488	2861.489722	23.416667
882.239340	2866.468024	23.433333
882.883190	2871.450298	23.450000
883.848865	2875.051206	23.466667
884.333962	2877.499229	23.483333
884.978673	2881.196219	23.500000
885.622948	2885.542963	23.516667
886.267656	2889.244851	23.533333
886.911928	2893.597289	23.550000
887.556632	2897.304075	23.566667
888.200900	2901.662206	23.583333
888.844730	2906.672961	23.600000
889.488994	2911.037640	23.616667
890.293736	2915.359412	23.633333
891.420309	2918.290735	23.650000
891.745787	2919.500490	23.666667
892.390917	2922.571945	23.683333
893.035609	2926.296526	23.700000
893.358902	2930.767139	23.716667
894.323241	2936.362166	23.733333
895.128408	2940.049156	23.750000
895.613488	2942.523710	23.766667
896.579571	2945.515194	23.783333
896.903293	2949.345422	23.800000
897.387494	2953.132048	23.816667
898.030419	2959.493842	23.833333
898.673779	2965.206420	23.850000
899.477617	2970.878273	23.866667
900.281891	2975.898768	23.883333
901.087482	2978.952930	23.900000
901.893073	2982.008712	23.916667
902.378582	2983.842959	23.933333
903.022809	2988.262114	23.950000
903.828396	2991.322715	23.966667
904.152099	2995.180097	23.983333
905.117282	2999.515917	24.000000
905.923748	3001.264332	24.016667
906.248331	3003.809281	24.033333
906.892990	3007.582990	24.050000
907.376283	3012.724432	24.066667
908.019169	3019.145388	24.083333
908.823417	3024.204671	24.100000
909.628106	3028.606411	24.116667
910.594603	3030.980143	24.133333
910.757366	3035.568664	24.150000
911.722086	3040.595590	24.166667
912.206695	3043.773553	24.183333
913.011819	3047.525602	24.200000
913.656460	3051.325348	24.216667
914.301101	3055.127365	24.233333
915.267146	3058.176469	24.250000
915.913119	3059.988579	24.266667
916.237241	3063.221706	24.283333
917.041465	3068.316332	24.300000
917.525619	3072.173923	24.316667
918.008431	3078.032433	24.333333
918.973128	3083.093290	24.350000
919.456829	3087.626675	24.366667
920.261040	3092.740331	24.383333
921.066592	3095.853641	24.400000
921.550734	3099.727336	24.416667
922.355388	3104.181714	24.433333
923.000007	3108.015125	24.450000
923.805105	3111.805666	24.466667
924.611548	3113.588965	24.483333
924.935652	3116.848265	24.500000
925.740747	3120.644188	24.516667
926.224879	3124.532593	24.533333
927.029071	3129.675550	24.550000
927.513650	3132.897575	24.566667
928.157358	3138.092103	24.583333
928.961993	3142.573063	24.600000
929.285637	3146.519209	24.616667
930.088915	3153.026076	24.633333
931.054475	3156.798319	24.650000
931.217182	3161.471840	24.666667
932.664179	3165.114293	24.683333
933.149651	3167.003801	24.700000
933.955630	3169.479153	24.716667
934.440649	3172.045345	24.733333
934.602896	3177.405122	24.750000
935.406154	3183.942112	24.766667
936.371702	3187.732819	24.783333
936.854900	3193.014750	24.800000
937.981833	3195.410837	24.816667
938.467298	3197.309391	24.833333
939.112335	3200.519718	24.850000
939.435957	3204.499530	24.866667
940.078717	3211.107643	24.883333
940.883319	3215.638637	24.900000
941.526984	3220.897328	24.916667
942.492517	3224.709953	24.933333
943.138457	3226.572481	24.950000
943.623004	3229.841741	24.966667
944.588990	3232.978669	24.983333
944.752576	3236.340353	25.000000
945.556709	3241.570565	25.016667
946.361754	3245.440142	25.033333
946.844923	3250.766557	25.050000
947.811360	3253.230770	25.066667
948.295899	3256.512973	25.083333
948.940458	3260.435883	25.100000
949.585933	3262.993076	25.116667
950.069551	3267.648625	25.133333
951.034148	3272.858624	25.150000
951.196803	3277.609622	25.166667
952.160476	3284.198826	25.183333
953.126444	3287.362564	25.200000
953.449572	3292.078659	25.216667
954.414617	3296.620276	25.233333
955.059621	3299.878889	25.250000
955.543684	3303.871146	25.266667
956.349166	3307.088930	25.283333
956.994167	3310.352652	25.300000
957.477765	3315.039708	25.316667
958.765143	3317.441056	25.333333
958.767299	3322.265786	25.350000
959.410908	3327.606383	25.366667
960.215457	3332.216350	25.383333
961.181409	3335.403733	25.400000
961.666385	3338.034382	25.416667
962.149507	3343.431256	25.433333
962.954512	3347.360073	25.450000
963.598573	3352.027532	25.466667
964.243095	3356.005447	25.483333
965.048096	3359.941538	25.500000
965.371192	3364.705553	25.516667
966.496218	3369.946094	25.533333
966.820705	3372.633988	25.550000
967.624769	3377.968741	25.566667
968.269747	3381.266498	25.583333
968.914258	3385.261120	25.600000
969.880659	3387.778846	25.616667
970.204675	3391.169381	25.633333
970.848716	3395.865983	25.650000
971.814181	3399.781113	25.666667
972.298673	3403.133358	25.683333
972.782229	3407.881827	25.700000
973.425795	3413.287296	25.716667
974.390785	3417.910705	25.733333
975.035751	3421.227600	25.750000
975.680715	3424.546098	25.766667
976.324741	3429.264786	25.783333
976.969234	3433.286800	25.800000
977.452308	3438.755171	25.816667
978.095859	3444.183741	25.833333
979.060835	3448.827688	25.850000
979.544841	3452.904401	25.866667
980.671704	3455.404940	25.883333
980.835690	3458.168745	25.900000
981.640181	3462.865816	25.916667
982.285132	3466.204066	25.933333
982.768660	3470.993769	25.950000
983.573146	3475.699274	25.966667
984.538108	3480.364298	25.983333
985.023046	3483.050125	26.000000
985.667519	3487.102567	26.016667
986.311045	3492.567437	26.033333
986.955987	3495.919708	26.050000
987.278550	3501.478131	26.066667
988.242555	3507.572952	26.083333
989.047497	3511.595550	26.100000
989.531954	3515.000182	26.116667
990.497373	3518.983570	26.133333
990.981827	3522.391703	26.150000
991.626759	3525.758002	26.166667
992.431695	3529.791000	26.183333
992.916146	3533.204211	26.200000
993.559649	3538.703309	26.216667
994.203626	3543.496633	26.233333
994.848076	3547.582896	26.250000
996.134916	3550.787773	26.266667
996.299355	3552.876047	26.283333
996.783322	3557.010979	26.300000
997.426814	3562.527721	26.316667
998.069825	3568.760452	26.333333
998.873313	3574.955016	26.350000
999.678230	3579.015572	26.366667
1000.322667	3583.121617	26.383333
1001.127581	3587.186794	26.400000
1001.612492	3589.912581	26.416667
1002.417404	3593.981617	26.433333
1002.419920	3598.268508	26.450000
1003.704827	3604.358220	26.466667
1004.671171	3606.961160	26.483333
1004.995598	3609.737426	26.500000
1005.800982	3613.101555	26.516667
1006.446366	3615.794036	26.533333
1006.769351	3620.723455	26.550000
1007.251852	3627.047271	26.566667
1008.216267	3632.529417	26.583333
1009.020200	3638.058597	26.600000
1009.825575	3641.435904	26.616667
1010.148549	3646.381411	26.633333
1010.952958	3651.201265	26.650000
1011.758811	3653.864997	26.666667
1012.403219	3658.012600	26.683333
1013.209071	3660.678968	26.700000
1013.211080	3665.722403	26.716667
1014.496432	3671.147495	26.733333
1014.820844	3673.947193	26.750000
1015.302833	3681.036338	26.766667
1016.428667	3685.070503	26.783333
1016.912586	3689.277966	26.800000
1018.038902	3692.593703	26.816667
1018.364278	3693.954637	26.833333
1018.847709	3698.890711	26.850000
1019.653065	3702.296425	26.866667
1019.815050	3708.047509	26.883333
1020.617488	3715.807078	26.900000
1021.743310	3719.860736	26.916667
1022.548659	3723.276099	26.933333
1023.515946	3724.472391	26.950000
1023.680353	3726.607961	26.966667
1024.324735	3730.795662	26.983333
1024.647671	3735.797622	27.000000
1025.289613	3743.627491	27.016667
1026.254458	3748.467283	27.033333
1026.898832	3752.666726	27.050000
1027.542228	3758.326128	27.066667
1028.668522	3761.674384	27.083333
1028.832434	3764.549304	27.100000
1029.797270	3769.402606	27.116667
1030.121169	3772.968052	27.133333
1030.925034	3778.599755	27.150000
1031.890843	3781.999906	27.166667
1032.054260	3785.613343	27.183333
1033.018597	3791.211887	27.200000
1033.502968	3794.744775	27.216667
1034.145361	3801.899802	27.233333
1034.950194	3806.085977	27.250000
1035.433578	3811.092404	27.266667
1036.398394	3815.975288	27.283333
1036.883249	3818.785011	27.300000
1037.366135	3824.534021	27.316667
1038.492409	3827.913159	27.333333
1038.815798	3832.239997	27.350000
1039.781098	3836.400608	27.366667
1040.426426	3839.175661	27.383333
1040.910289	3843.466454	27.400000
1041.876079	3846.896603	27.416667
1042.360927	3849.717625	27.433333
1042.683320	3855.530872	27.450000
1043.808595	3860.400119	27.466667
1044.131478	3865.482533	27.483333
1045.097260	3868.922783	27.500000
1045.420635	3873.271467	27.516667
1046.385919	3877.454613	27.533333
1047.031238	3880.244690	27.550000
1047.192643	3886.861413	27.566667
1048.155938	3894.014357	27.583333
1048.799763	3899.033554	27.600000
1049.604064	3904.014013	27.616667
1050.730312	3907.430037	27.633333
1051.055165	3909.572441	27.650000
1052.020934	3913.032947	27.666667
1052.185308	3915.218686	27.683333
1052.988108	3922.438905	27.700000
1054.115845	3923.633227	27.716667
1054.279718	3926.565377	27.733333
1055.084506	3930.819433	27.750000
1055.729811	3933.628962	27.766667
1055.891687	3939.542933	27.783333
1056.532996	3948.317038	27.800000
1057.497754	3953.286750	27.816667
1058.301032	3959.793955	27.833333
1059.106808	3962.572173	27.850000
1059.429649	3967.717196	27.866667
1060.394900	3971.951560	27.883333
1060.557259	3977.143789	27.900000
1061.521002	3983.628244	27.916667
1062.325769	3987.912602	27.933333
1063.131037	3991.450127	27.950000
1063.615348	3995.072195	27.966667
1064.581593	3997.821816	27.983333
1064.905424	4001.488210	28.000000
1065.711191	4004.281651	28.016667
1066.355473	4008.618701	28.033333
1067.160734	4012.165702	28.050000
1067.644032	4017.299687	28.066667
1068.127328	4022.436726	28.083333
1068.770595	4028.287762	28.100000
1069.413860	4034.142815	28.116667
1070.056113	4041.508537	28.133333
1071.020832	4046.536288	28.150000
1071.665605	4050.141264	28.166667
1072.631836	4052.911027	28.183333
1072.795680	4055.887868	28.200000
1073.760393	4060.924709	28.216667
1074.405667	4063.780811	28.233333
1074.889451	4068.190370	28.250000
1075.533203	4073.317151	28.266667
1076.498416	4077.608304	28.283333
1076.982702	4081.268253	28.300000
1077.787434	4085.604786	28.316667
1078.110732	4090.066808	28.333333
1078.913938	4096.681962	28.350000
1079.719173	4100.268126	28.366667
1080.362912	4105.414484	28.383333
1081.167636	4109.763734	28.400000
1081.491435	4113.478627	28.416667
1082.134660	4119.392947	28.433333
1082.937851	4126.030910	28.450000
1083.583109	4128.910063	28.466667
1084.387315	4134.032856	28.483333
1085.032572	4136.914883	28.500000
1085.516330	4141.362417	28.516667
1086.481518	4145.689752	28.533333
1086.965273	4150.141864	28.550000
1087.609503	4154.555454	28.566667
1088.253221	4159.734723	28.583333
1089.219426	4162.544343	28.600000
1089.704199	4165.477277	28.616667
1090.188459	4169.175435	28.633333
1090.670669	4175.933782	28.650000
1091.635332	4181.044603	28.666667
1092.118049	4187.046229	28.683333
1093.082708	4192.163798	28.700000
1093.566960	4195.873369	28.716667
1094.370625	4201.803867	28.733333
1095.015865	4204.709782	28.750000
1095.499600	4209.192299	28.766667
1096.142781	4215.172509	28.783333
1096.946951	4220.347730	28.800000
1097.430165	4225.607071	28.816667
1098.556317	4229.169037	28.833333
1099.041074	4232.125037	28.850000
1099.846269	4235.770932	28.866667
1100.331025	4238.729267	28.883333
1100.814231	4243.999756	28.900000
1101.296919	4250.044227	28.916667
1102.099525	4257.554962	28.933333
1103.064672	4261.943415	28.950000
1103.870376	4264.830047	28.966667
1104.032618	4270.196590	28.983333
1105.158238	4274.551399	29.000000
1105.803462	4277.482793	29.016667
1105.965699	4282.856764	29.033333
1107.091315	4287.218266	29.050000
1107.575021	4291.743026	29.066667
1108.379679	4296.189667	29.083333
1108.863382	4300.718994	29.100000
1109.506002	4307.537304	29.116667
1110.471132	4311.951904	29.133333
1110.955350	4315.712775	29.150000
1111.599523	4320.211881	29.166667
1112.404172	4324.673216	29.183333
1112.727389	4329.257056	29.200000
1113.692511	4333.682979	29.216667
1114.015203	4339.049633	29.233333
1115.139755	4344.998127	29.250000
1115.946483	4346.355960	29.266667
1116.269693	4350.950800	29.283333
1117.235330	4354.608427	29.300000
1117.720058	4357.607624	29.316667
1118.203217	4362.948509	29.333333
1118.847375	4367.471855	29.350000
1119.490483	4373.559727	29.366667
1120.133066	4380.433320	29.383333
1120.776693	4385.747558	29.400000
1121.580271	4391.807723	29.416667
1122.224418	4396.345581	29.433333
1122.707562	4401.708917	29.450000
1123.833136	4406.132532	29.466667
1124.155800	4411.541367	29.483333
1124.960417	4416.049492	29.500000
1125.765559	4419.774989	29.516667
1126.088744	4424.406402	29.533333
1127.374260	4429.587927	29.550000
1127.699548	4431.080290	29.566667
1128.504685	4434.812354	29.583333
1129.311402	4436.186820	29.600000
1129.473578	4441.652993	29.616667
1130.117180	4447.003452	29.633333
1130.760781	4452.357019	29.650000
1131.403324	4459.289904	29.666667
1132.206868	4465.399691	29.683333
1132.850991	4469.974843	29.700000
1133.494583	4475.341733	29.716667
1134.620660	4479.013776	29.733333
1134.782819	4484.504312	29.750000
1135.748418	4488.219731	29.766667
1135.910043	4494.506463	29.783333
1136.711981	4503.014479	29.800000
1137.837519	4507.490441	29.816667
1138.321682	4511.333600	29.833333
1139.287804	4514.267852	29.850000
1139.773559	4515.735395	29.866667
1140.417664	4520.335980	29.883333
1141.223307	4523.312746	29.900000
1141.385981	4528.034898	29.916667
1142.188963	4534.985049	29.933333
1142.833062	4539.595216	29.950000
1143.796513	4546.514795	29.966667
1144.442207	4548.744196	29.983333
1144.765349	4553.439566	30.000000
1145.569385	4558.816058	30.016667
1145.890922	4565.906349	30.033333
1146.532340	4574.518283	30.050000
1147.818330	4578.991875	30.066667
1148.301938	4583.662910	30.083333
1149.106497	4588.258262	30.100000
1149.912660	4590.459402	30.116667
1150.074777	4596.013269	30.133333
1151.199748	4601.336584	30.150000
1151.684421	4604.418846	30.166667
1152.488436	4609.825016	30.183333
1153.134119	4612.070714	30.200000
1153.618253	4615.957400	30.216667
1154.261788	4621.409205	30.233333
1154.744308	4627.704642	30.250000
1155.386764	4634.767533	30.266667
1156.834822	4636.825702	30.283333
1156.838059	4640.036153	30.300000
1157.803613	4643.818104	30.316667
1158.287738	4647.717927	30.333333
1158.287203	4656.558514	30.350000
1159.571548	4663.487807	30.366667
1159.893573	4669.849120	30.383333
1161.178991	4675.177156	30.400000
1161.664187	4677.478155	30.416667
1162.467634	4683.732806	30.433333
1163.434797	4685.113893	30.450000
1163.436943	4689.952997	30.466667
1164.401942	4694.563060	30.483333
1165.046528	4698.445122	30.500000
1165.530097	4703.175037	30.516667
1166.334074	4708.638433	30.533333
1166.978657	4712.526312	30.550000
1167.461679	4718.072008	30.566667
1168.104633	4724.391758	30.583333
1168.748126	4729.905661	30.600000
1169.711483	4736.966668	30.616667
1170.195583	4740.904478	30.633333
1170.839070	4746.427755	30.650000
1171.482555	4751.954149	30.666667
1172.287058	4756.633392	30.683333
1172.770063	4762.203864	30.700000
1173.574018	4767.700949	30.716667
1174.538991	4772.349752	30.733333
1175.346212	4772.971961	30.750000
1175.669826	4776.962757	30.766667
1176.635886	4779.988545	30.783333
1176.960044	4783.168099	30.800000
1177.442493	4789.568378	30.816667
1178.084870	4796.749645	30.833333
1178.727243	4803.936001	30.850000
1180.013154	4808.526753	30.866667
1180.499422	4809.228695	30.883333
1180.661457	4814.905148	30.900000
1181.625319	4821.211575	30.916667
1182.108848	4826.001098	30.933333
1182.589635	4834.882673	30.950000
1183.554037	4840.383315	30.966667
1184.358511	4845.106124	30.983333
1185.162983	4849.831288	31.000000
1185.969100	4852.100061	31.016667
1186.292693	4856.122549	31.033333
1186.937235	4860.070913	31.050000
1187.741702	4864.803537	31.066667
1188.064742	4869.651928	31.083333
1188.707630	4876.069558	31.100000
1189.510990	4882.453482	31.116667
1190.153873	4888.879230	31.133333
1191.119357	4892.765399	31.150000
1191.602311	4898.412384	31.166667
1192.407869	4901.516836	31.183333
1192.890820	4907.168729	31.200000
1193.695271	4911.924274	31.216667
1194.018848	4915.970520	31.233333
1194.660611	4924.067706	31.250000
1195.624979	4929.619281	31.266667
1196.589898	4934.348161	31.283333
1197.075051	4936.713500	31.300000
1198.041076	4939.793195	31.316667
1198.204724	4943.061499	31.333333
1198.847580	4949.526120	31.350000
1199.813047	4953.437473	31.366667
1199.820652	4950.128409	31.383333
1199.513399	4937.803000	31.400000
1199.045660	4925.528846	31.416667
1198.420199	4909.184755	31.433333
1198.116223	4891.966901	31.450000
1197.169778	4875.748440	31.466667
1196.543167	4861.120050	31.483333
1195.917092	4845.692139	31.500000
1195.451478	4830.248422	31.516667
1194.504970	4814.123696	31.533333
1193.878303	4799.579317	31.550000
1193.252714	4783.425279	31.566667
1192.144048	4769.851091	31.583333
1191.675637	4758.580229	31.600000
1191.370414	4743.223963	31.616667
1190.584292	4727.194162	31.633333
1189.958088	4711.959845	31.650000
1189.171934	4695.978013	31.666667
1188.223125	4683.287349	31.683333
1187.756273	4669.690765	31.700000
1186.646966	4657.071491	31.716667
1186.339489	4645.078988	31.733333
1185.712666	4630.768038	31.750000
1185.085829	4616.476969	31.766667
1184.137491	4603.084456	31.783333
1183.348008	4592.071112	31.800000
1182.879469	4580.992065	31.816667
1182.091040	4568.406294	31.833333
1181.783494	4556.516594	31.850000
1181.156588	4542.329573	31.866667
1180.207650	4529.831280	31.883333
1179.741195	4515.642730	31.900000
1179.113718	4502.306384	31.916667
1178.325223	4489.819307	31.933333
1177.535657	4478.930714	31.950000
1176.746612	4467.263814	31.966667
1176.600521	4453.874060	31.983333
1175.653093	4439.122603	32.000000
1174.864016	4427.502915	32.016667
1174.557941	4413.419224	32.033333
1173.126938	4401.988715	32.050000
1172.817684	4392.648156	32.066667
1172.350048	4380.220985	32.083333
1171.560925	4368.671783	32.100000
1171.093792	4355.493272	32.116667
1169.984742	4342.492023	32.133333
1169.354497	4333.287948	32.150000
1168.725812	4321.755415	32.166667
1167.775121	4311.873171	32.183333
1167.466331	4301.841251	32.200000
1166.837621	4290.346632	32.216667
1166.369897	4278.050095	32.233333
1166.064198	4263.405414	32.250000
1164.794067	4251.344369	32.266667
1164.326310	4239.097834	32.283333
1163.538106	4226.176199	32.300000
1162.908818	4215.543490	32.316667
1162.281069	4202.613902	32.333333
1161.491802	4191.279747	32.350000
1161.023993	4179.110695	32.366667
1160.235734	4166.271818	32.383333
1159.124969	4155.829207	32.400000
1158.494602	4146.806827	32.416667
1157.863717	4138.557723	32.433333
1157.394839	4127.984483	32.450000
1156.926465	4116.660577	32.466667
1155.976138	4106.234753	32.483333
1155.829210	4094.094925	32.500000
1154.718898	4082.976125	32.516667
1154.249978	4072.466462	32.533333
1153.622096	4059.735511	32.550000
1152.671725	4049.375683	32.566667
1152.202272	4039.661052	32.583333
1151.574359	4026.976097	32.600000
1150.784441	4016.613284	32.616667
1150.156002	4004.714212	32.633333
1149.366570	3993.624746	32.650000
1148.897077	3983.970003	32.666667
1148.107628	3972.906468	32.683333
1147.478144	3962.565437	32.700000
1146.849155	3951.487306	32.716667
1146.060180	3939.716333	32.733333
1145.430170	3930.161458	32.750000
1144.640175	3919.912063	32.766667
1144.009651	3911.124641	32.783333
1143.702572	3898.538156	32.800000
1142.752573	3887.623755	32.816667
1142.283999	3876.598005	32.833333
1141.333981	3865.711480	32.850000
1140.703917	3856.237579	32.866667
1140.074342	3846.033680	32.883333
1139.766706	3834.278972	32.900000
1138.977625	3822.665785	32.916667
1138.189028	3810.330942	32.933333
1137.238460	3800.265436	32.950000
1136.768825	3790.821506	32.966667
1135.818734	3780.044579	32.983333
1135.187623	3772.133511	33.000000

1134.717476	3763.454209	33.016667
1134.087337	3754.093306	33.033333
1133.618158	3743.968645	33.050000
1132.828505	3733.209736	33.066667
1131.878364	3722.507139	33.083333
1131.730117	3712.335414	33.100000
1130.780446	3700.931449	33.116667
1130.151234	3690.185532	33.133333
1129.361048	3680.222406	33.150000
1128.731332	3670.228799	33.166667
1128.102094	3659.522551	33.183333
1127.472846	3648.830117	33.200000
1126.682626	3638.917117	33.216667
1126.213839	3628.208656	33.233333
1125.423119	3619.041869	33.250000
1124.793353	3609.122324	33.266667
1124.324540	3598.452448	33.283333
1123.695721	3587.120736	33.300000
1122.744972	3577.325837	33.316667
1121.955173	3566.783373	33.333333
1121.324885	3557.643452	33.350000
1120.855548	3547.755725	33.366667
1120.065724	3537.252074	33.383333
1119.435892	3527.432404	33.400000
1118.966530	3517.581547	33.416667
1118.177156	3506.406089	33.433333
1117.226816	3496.000279	33.450000
1116.756477	3487.607653	33.466667
1115.805646	3477.935890	33.483333
1115.174815	3469.605886	33.500000
1114.543505	3461.992343	33.516667
1114.235041	3451.472029	33.533333
1113.605611	3441.052434	33.550000
1112.655213	3430.733808	33.566667
1112.025292	3421.045893	33.583333
1111.233941	3412.820154	33.600000
1110.925435	3402.364846	33.616667
1109.975002	3392.098132	33.633333
1109.666007	3382.370856	33.650000
1108.555546	3371.475120	33.666667
1107.924639	3363.258956	33.683333
1107.294662	3353.655393	33.700000
1106.825156	3344.019931	33.716667
1105.872803	3336.617760	33.733333
1105.564228	3326.264102	33.750000
1104.452782	3316.839083	33.766667
1103.982315	3308.638022	33.783333
1103.352291	3299.103315	33.800000
1102.560852	3291.009665	33.816667
1101.930350	3282.189041	33.833333
1101.621726	3271.908644	33.850000
1100.832117	3261.084814	33.866667
1100.202976	3250.232421	33.883333
1099.251483	3241.548347	33.900000
1098.621402	3232.098787	33.916667
1097.830374	3223.392082	33.933333
1097.520319	3215.248140	33.950000
1096.569256	3205.921072	33.966667
1095.938228	3197.885248	33.983333
1095.790008	3187.674677	34.000000
1094.839836	3177.018404	34.016667
1093.888284	3168.422065	34.033333
1093.418620	3159.021571	34.050000
1092.466598	3151.126827	34.066667
1092.156945	3142.382966	34.083333
1091.206273	3132.472012	34.100000
1090.735217	3125.150090	34.116667
1090.267330	3113.099095	34.133333
1089.155246	3104.624865	34.150000
1088.845555	3095.936535	34.166667
1087.894841	3086.090347	34.183333
1087.263724	3078.187422	34.200000
1086.793982	3068.903470	34.216667
1085.681862	3060.483344	34.233333
1085.371237	3053.189916	34.250000
1084.901922	3043.268496	34.266667
1084.112087	3032.782090	34.283333
1083.804129	3021.507667	34.300000
1082.371009	3013.236052	34.316667
1081.899871	3006.036280	34.333333
1081.429621	2997.512281	34.350000
1080.637957	2989.754333	34.366667
1080.489544	2979.831057	34.383333
1079.379127	2968.867693	34.400000
1078.748366	2960.434484	34.416667
1077.635713	2952.809756	34.433333
1077.002281	2948.362383	34.450000
1076.852501	2940.478568	34.466667
1075.901639	2930.852633	34.483333
1075.270846	2922.466647	34.500000
1074.961888	2912.683928	34.516667
1073.689598	2903.846067	34.533333
1073.379304	2896.058340	34.550000
1072.749361	2886.404644	34.566667
1072.118531	2878.073677	34.583333
1071.809969	2867.700358	34.600000
1070.698556	2858.224665	34.616667
1070.229493	2847.927471	34.633333
1069.117189	2839.782219	34.650000
1068.485013	2833.460138	34.666667
1068.336016	2824.407838	34.683333
1067.224127	2815.643770	34.700000
1066.753284	2808.003122	34.716667
1066.283736	2798.430068	34.733333
1065.010909	2790.393841	34.750000
1064.861441	2782.044776	34.766667
1063.587736	2775.318905	34.783333
1063.276048	2769.611355	34.800000
1062.806032	2760.737604	34.816667
1061.854564	2752.014779	34.833333
1061.705494	2743.072254	34.850000
1060.755298	2732.451429	34.866667
1060.123910	2724.954159	34.883333
1059.654709	2714.863104	34.900000
1058.381382	2707.572460	34.916667
1057.910882	2699.420764	34.933333
1057.279041	2692.599284	34.950000
1056.969861	2683.148257	34.966667
1056.179654	2673.215882	34.983333
1055.388587	2664.567111	35.000000
1054.436607	2656.610315	35.016667
1053.643829	2650.514820	35.033333
1053.011105	2645.010814	35.050000
1052.861936	2636.214594	35.066667
1051.588546	2629.018868	35.083333
1051.599422	2620.827590	35.100000
1050.647404	2612.927790	35.116667
1050.016761	2604.316516	35.133333
1049.385691	2596.344486	35.150000
1048.594552	2587.803341	35.166667
1047.963048	2580.478519	35.183333
1047.653757	2571.193729	35.200000
1046.702113	2562.734866	35.216667
1046.392804	2553.476503	35.233333
1045.119763	2545.759174	35.250000
1044.648290	2539.059519	35.266667
1043.857097	2530.599193	35.283333
1043.386028	2523.296314	35.300000
1042.755301	2514.811032	35.316667
1041.964085	2506.385061	35.333333
1041.011551	2499.253577	35.350000
1040.540044	2492.605787	35.366667
1039.587086	2486.107621	35.383333
1039.757907	2478.669357	35.400000
1038.806999	2469.113148	35.416667
1038.176220	2460.705000	35.433333
1037.546255	2451.083182	35.450000
1036.593676	2444.019803	35.466667
1036.123355	2435.600041	35.483333
1035.492545	2427.239839	35.500000
1034.540355	2419.596504	35.516667
1034.069195	2412.429299	35.533333
1033.277065	2405.366347	35.550000
1032.966783	2397.561631	35.566667
1032.015784	2388.139022	35.583333
1031.062747	2381.759805	35.600000
1030.591150	2375.244546	35.616667
1029.959471	2368.180242	35.633333
1029.167305	2361.172685	35.650000
1028.696096	2354.078118	35.666667
1028.065207	2345.836200	35.683333
1027.433906	2338.207426	35.700000
1026.963483	2329.940558	35.716667
1026.333373	2320.534761	35.733333
1025.221807	2311.288916	35.750000
1024.589674	2304.902453	35.766667
1024.118818	2297.281181	35.783333
1023.166509	2289.814810	35.800000
1022.373079	2284.692721	35.816667
1022.062289	2277.645917	35.833333
1021.270046	2270.752682	35.850000
1020.799556	2262.584893	35.866667
1020.168974	2253.884888	35.883333
1019.055745	2247.118611	35.900000
1018.423166	2241.398171	35.916667
1017.790979	2235.093426	35.933333
1017.318874	2229.337451	35.950000
1016.848343	2221.231165	35.966667
1016.218110	2212.009134	35.983333
1015.587473	2203.389770	36.000000
1014.796345	2194.832711	36.016667
1013.844332	2186.923390	36.033333
1013.372585	2180.634001	36.050000
1012.258902	2174.546699	36.066667
1011.626270	2168.904252	36.083333
1011.636346	2161.907541	36.100000
1010.845563	2152.835791	36.116667
1010.053990	2144.941346	36.133333
1009.262021	2137.638991	36.150000
1008.308786	2131.554620	36.166667
1007.514865	2127.165449	36.183333
1007.203552	2120.898503	36.200000
1006.892621	2114.061291	36.216667
1006.422747	2104.974869	36.233333
1005.471415	2096.050935	36.250000
1004.840267	2088.194098	36.266667
1003.727278	2081.070358	36.283333
1003.094963	2074.956387	36.300000
1002.301776	2069.471634	36.316667
1001.990034	2063.845688	36.333333
1001.680201	2055.368967	36.350000
1000.728428	2047.102593	36.366667
999.775883	2039.988973	36.383333
999.464881	2033.257538	36.400000
998.190595	2027.398577	36.416667
997.718338	2021.868213	36.433333
997.246458	2015.777061	36.450000
996.453227	2010.358197	36.466667
996.303818	2001.920534	36.483333
995.351607	1994.307909	36.500000
994.880837	1986.559023	36.516667
993.928232	1979.533286	36.533333
993.135351	1973.592772	36.550000
992.824290	1966.949642	36.566667
992.033276	1958.221303	36.583333
991.562094	1951.088348	36.600000
990.449346	1943.605197	36.616667
989.655686	1938.825823	36.633333
989.344220	1932.787028	36.650000
988.390817	1926.954297	36.666667
988.078968	1921.486609	36.683333
987.448011	1913.346168	36.700000
986.494591	1907.537827	36.716667
985.862132	1901.637412	36.733333
985.390523	1895.141116	36.750000
984.758054	1889.256163	36.766667
984.127060	1881.170626	36.783333
983.173982	1874.851767	36.800000
983.024052	1867.191437	36.816667
981.911583	1859.293188	36.833333
981.439935	1852.854610	36.850000
980.969015	1845.328979	36.866667
980.017003	1837.418407	36.883333
979.224734	1830.563732	36.900000
978.592211	1824.760151	36.916667
977.637986	1820.153975	36.933333
977.326420	1814.263633	36.950000
976.372916	1808.581282	36.966667
976.221461	1803.198436	36.983333
975.269400	1795.361436	37.000000
974.476000	1790.194684	37.016667
974.004650	1783.311186	37.033333
973.051481	1777.128784	37.050000
972.579395	1771.343591	37.066667
972.108026	1764.488565	37.083333
971.315322	1758.282317	37.100000
970.844300	1750.910055	37.116667
970.052661	1743.114435	37.133333
969.259938	1736.938291	37.150000
968.788534	1730.135427	37.166667
967.674830	1724.078669	37.183333
967.041858	1718.945550	37.200000
966.569365	1713.768005	37.216667
965.776257	1708.165725	37.233333
965.465307	1701.356617	37.250000
964.351576	1695.341282	37.266667
964.200742	1689.030935	37.283333
963.409030	1681.345231	37.300000
962.454701	1676.892523	37.316667
962.143719	1670.131520	37.333333
961.350926	1664.059725	37.350000
961.201119	1656.215748	37.366667
960.410775	1646.489159	37.383333
959.297342	1640.028768	37.400000
958.504519	1634.000240	37.416667
957.550506	1629.076537	37.433333
957.237726	1624.999469	37.450000
956.766206	1618.369774	37.466667
955.652045	1612.995429	37.483333
955.340300	1607.373652	37.500000
954.547446	1601.392908	37.516667
953.915417	1594.851422	37.533333
953.122203	1589.406843	37.550000
952.328291	1585.004160	37.566667
951.856383	1578.954312	37.583333
951.384468	1572.913195	37.600000
950.912548	1566.880807	37.616667
950.281861	1558.337068	37.633333
949.328818	1551.966072	37.650000
948.857564	1544.939225	37.666667
947.743679	1539.152703	37.683333
946.950073	1534.294674	37.700000
946.477430	1529.340183	37.716667
945.684157	1523.984534	37.733333
945.050681	1519.603499	37.750000
944.739192	1513.598599	37.766667
943.785420	1508.315890	37.783333
943.313436	1502.379145	37.800000
942.520816	1496.047551	37.816667
941.887319	1491.697905	37.833333
941.094349	1485.888945	37.850000
940.622004	1480.490252	37.866667
939.989508	1474.646622	37.883333
939.196521	1468.863324	37.900000
939.045803	1462.380197	37.916667
938.254483	1454.108130	37.933333
937.301327	1447.906682	37.950000
936.669132	1441.612269	37.966667
935.715293	1436.429449	37.983333
935.081750	1432.147506	38.000000
934.769841	1426.771318	38.016667
933.816654	1420.615256	38.033333
933.505066	1414.758720	38.050000
932.712018	1409.066271	38.066667
931.597995	1403.486291	38.083333
931.285727	1398.644363	38.100000
930.492332	1393.470446	38.116667
930.020562	1387.214421	38.133333
929.387970	1381.512598	38.150000
928.916187	1375.276256	38.166667
927.963271	1368.715541	38.183333
927.009363	1363.635958	38.200000
926.536904	1358.407800	38.216667
926.064767	1352.698528	38.233333
925.271982	1346.614427	38.250000
924.799507	1341.410298	38.266667
923.846550	1334.911160	38.283333
922.731473	1330.903304	38.300000
922.578978	1327.072722	38.316667
921.946648	1320.980118	38.333333
921.474797	1314.845587	38.350000
920.681968	1308.825703	38.366667
919.728002	1303.832429	38.383333
919.255486	1298.689838	38.400000
918.622802	1293.126123	38.416667
917.990434	1287.091214	38.433333
917.196931	1282.077293	38.450000
916.885520	1275.956666	38.466667
916.092967	1269.525659	38.483333
915.138963	1264.589638	38.500000
914.505604	1260.032571	38.516667
913.872879	1254.530198	38.533333
913.079027	1250.039006	38.550000
912.766943	1244.922113	38.566667
911.813232	1239.548818	38.583333
911.340653	1234.499762	38.600000
910.868702	1228.513482	38.616667
909.754171	1223.690669	38.633333
909.281261	1219.135917	38.650000
908.487377	1214.692438	38.666667
908.015088	1209.210489	38.683333
907.221509	1204.311473	38.700000
906.749209	1198.846262	38.716667
906.117044	1192.507534	38.733333
905.484558	1186.647268	38.750000
904.691581	1180.849997	38.766667
903.737488	1176.046008	38.783333
902.943564	1171.661216	38.800000
902.469985	1168.105004	38.816667
901.997645	1162.698770	38.833333
901.204019	1157.869585	38.850000
900.410079	1153.509868	38.866667
900.098517	1147.613449	38.883333
899.144391	1142.859978	38.900000
898.672023	1137.495231	38.916667
897.717578	1133.216545	38.933333
897.244893	1128.326462	38.950000
896.772203	1123.443701	38.966667
896.300426	1117.196499	38.983333
895.668157	1111.014145	39.000000
894.875394	1104.896713	39.016667
893.761043	1099.806751	39.033333
893.127838	1095.020429	39.050000
892.011956	1092.214996	39.066667
892.020078	1088.134429	39.083333
891.065587	1083.924976	39.100000
890.592548	1079.562206	39.116667
889.959926	1073.904981	39.133333
889.327298	1068.258000	39.150000
888.694362	1063.070869	39.166667
887.579662	1058.501170	39.183333
886.945513	1055.124343	39.200000
886.632932	1050.748985	39.216667
885.839490	1045.645085	39.233333
885.527499	1040.390000	39.250000
884.734344	1034.857901	39.266667
883.940586	1030.225976	39.283333
883.146823	1025.601444	39.300000
882.513243	1021.374611	39.316667
881.879956	1016.710761	39.333333
881.247257	1011.169551	39.350000
880.131910	1007.565497	39.366667
880.140256	1003.150977	39.383333
879.347054	997.688489	39.400000
878.713447	993.501804	39.416667
877.920233	988.057509	39.433333
877.126425	983.500024	39.450000
876.653584	978.842776	39.466667
875.698987	974.790657	39.483333
875.386622	970.093817	39.500000
874.753864	964.640152	39.516667
873.960614	959.250377	39.533333
873.488038	954.197610	39.550000
872.533998	949.314628	39.566667
871.578792	946.171627	39.583333
871.266106	941.952949	39.600000
869.989923	938.926294	39.616667
870.158688	934.557275	39.633333
869.526461	928.310655	39.650000
868.893650	922.936607	39.666667
868.261407	916.715363	39.683333
866.986064	912.434600	39.700000
866.512859	908.319335	39.716667
865.558192	904.371775	39.733333
865.084694	900.694868	39.750000
864.611478	896.597200	39.766667
863.817855	891.763494	39.783333
863.184143	887.733110	39.800000
862.550712	883.285121	39.816667
861.596019	879.375478	39.833333
861.283268	875.255960	39.850000
860.328567	871.358544	39.866667
860.015807	867.251119	39.883333
859.382635	862.416641	39.900000
858.588970	857.644964	39.916667
858.277039	852.300692	39.933333
857.323156	847.183042	39.950000
856.528913	843.274225	39.966667
856.056477	838.012339	39.983333
855.102297	833.339288	40.000000
854.789498	829.289213	40.016667
853.835029	825.047086	40.033333
853.201527	820.703906	40.050000
852.889547	815.432556	40.066667
851.453326	811.789497	40.083333
850.979191	809.063943	40.100000
850.184356	806.037993	40.116667
849.550006	802.961671	40.133333
849.397662	798.904474	40.150000
848.443433	794.304572	40.166667
848.130594	790.314962	40.183333
847.336840	785.676745	40.200000
846.863779	781.346610	40.216667
846.070560	775.910399	40.233333
845.276788	771.299126	40.250000
844.482738	767.102504	40.266667
844.009656	762.804306	40.283333
843.054838	759.081513	40.300000
842.902449	755.092333	40.316667
841.466435	751.141861	40.333333
841.153011	748.025621	40.350000
840.519150	744.217568	40.366667
839.724799	740.470152	40.383333
839.091200	736.273167	40.400000
838.135817	733.394172	40.416667
837.500869	731.210218	40.433333
837.508936	727.211074	40.450000
836.715369	722.294283	40.466667
836.242501	717.676505	40.483333
835.770426	711.875463	40.500000
834.495112	707.550696	40.516667
834.021960	703.356988	40.533333
833.227830	699.280048	40.550000
832.593652	695.944868	40.566667
832.120751	691.377828	40.583333
831.327133	686.535866	40.600000
830.371970	683.328859	40.616667
829.737515	680.409278	40.633333
828.942570	677.548428	40.650000
828.308109	674.636664	40.666667
827.673907	671.338165	40.683333
827.521685	667.099961	40.700000
826.566763	663.532744	40.716667
826.093819	659.029566	40.733333
825.139408	654.699827	40.750000
824.505186	651.430814	40.766667
823.870962	648.166722	40.783333
823.236992	644.521298	40.800000
822.603019	640.881937	40.816667
822.129786	636.808644	40.833333
821.496319	632.413377	40.850000
820.702103	628.465404	40.866667
819.747395	624.579836	40.883333
819.113399	620.973817	40.900000
818.318401	618.192506	40.916667
817.844629	614.923606	40.933333
817.210622	611.333970	40.950000
816.737353	607.315200	40.966667
815.782618	603.469133	40.983333
815.308832	600.222553	41.000000
814.675062	596.279545	41.016667
813.880800	592.399040	41.033333
813.407507	588.415484	41.050000
812.452497	584.981099	41.066667
811.657466	582.249042	41.083333
811.504631	578.924670	41.100000
810.550111	574.757578	41.116667
810.076546	571.181148	41.133333
809.282252	567.348031	41.150000
808.648441	563.466957	41.166667
808.014376	559.965172	41.183333
807.059083	556.951546	41.200000
806.585248	553.776847	41.216667
805.790684	550.347408	41.233333
804.995869	547.293804	41.250000
804.682511	544.078976	41.266667
803.727448	540.721947	41.283333
803.414083	537.517434	41.300000
802.941213	532.903437	41.316667
801.825896	529.254607	41.333333
801.031303	525.868283	41.350000
800.396704	523.163604	41.366667
799.762346	520.097747	41.383333
799.449204	516.561327	41.400000
798.494109	513.252974	41.416667
798.020714	509.420921	41.433333
797.226098	506.069799	41.450000
796.591722	503.031207	41.466667
795.797098	499.691631	41.483333
794.841499	497.135520	41.500000
794.527605	494.721464	41.516667
793.732970	491.397093	41.533333
793.098337	488.741974	41.550000
792.946125	484.488393	41.566667
791.830505	481.293494	41.583333
791.517555	477.468879	41.600000
790.723378	473.461766	41.616667
790.250170	469.351967	41.633333
789.455743	465.717615	41.650000
788.500825	462.146332	41.666667
787.866163	459.533393	41.683333
787.071250	456.626363	41.700000
786.275859	454.430714	41.716667
786.283612	450.900853	41.733333
785.168422	447.063437	41.750000
784.373023	444.880156	41.766667
783.738815	441.590959	41.783333
782.621966	440.227767	41.800000
782.789955	437.018577	41.816667
781.995718	433.100858	41.833333
781.040053	430.642865	41.850000
780.726802	427.268554	41.866667
780.092339	424.359761	41.883333
779.779546	420.302636	41.900000
778.503822	416.589682	41.916667
777.869115	414.044689	41.933333
777.074381	410.868913	41.950000
776.118463	408.789382	41.966667
776.125929	405.688351	41.983333
775.331184	402.528331	42.000000
774.696923	399.318380	42.016667
774.223604	395.373586	42.033333
772.786897	392.457052	42.050000
772.472683	390.519568	42.066667
771.677691	387.729508	42.083333
770.882239	385.625155	42.100000
770.889679	382.563512	42.116667
769.773930	379.559915	42.133333
769.460387	376.620696	42.150000
768.665832	373.178305	42.166667
767.870593	370.755878	42.183333
767.075578	368.000231	42.200000
766.762247	364.744544	42.216667
765.806737	362.055411	42.233333
765.332911	358.867326	42.250000
764.537658	356.467261	42.266667
764.224312	353.233835	42.283333
763.590211	349.785159	42.300000
762.634907	346.789221	42.316667
762.000797	343.354503	42.333333
761.045261	340.703113	42.350000
760.410254	338.606835	42.366667
759.454270	336.626072	42.383333
758.818594	335.527718	42.400000
758.986683	332.167020	42.416667
758.192064	328.820506	42.433333
757.557707	325.753857	42.450000
756.442103	322.533965	42.466667
755.646371	320.847348	42.483333
755.332540	318.339021	42.500000
754.537681	315.349905	42.516667
754.063575	312.580326	42.533333
753.429414	309.220699	42.550000
752.473837	306.631142	42.566667
752.160426	303.496414	42.583333
750.883867	301.030076	42.600000
750.409093	299.256958	42.616667
749.613775	296.952631	42.633333
749.139214	294.861927	42.650000
748.504163	292.830639	42.666667
747.709054	290.215290	42.683333
747.234702	287.813085	42.700000
746.760562	285.094031	42.716667
745.644467	282.605849	42.733333
745.330594	280.159699	42.750000
744.214494	277.680841	42.766667
743.739487	276.255595	42.783333
743.586521	273.126963	42.800000
742.630899	270.604697	42.816667
742.317438	267.544007	42.833333
741.362021	264.715601	42.850000
740.566665	262.468571	42.866667
739.932217	259.537912	42.883333
739.136644	257.614574	42.900000
738.501557	255.637613	42.916667
738.027587	252.664836	42.933333
737.392705	250.381558	42.950000
736.437054	247.902475	42.966667
735.641679	245.684102	42.983333
735.166859	243.980377	43.000000
734.371479	241.768809	43.016667
734.057560	239.391074	43.033333
733.422871	236.819925	43.050000
732.627691	234.310374	43.066667
731.992788	232.058578	43.083333
731.358089	229.501571	43.100000
730.402205	227.371475	43.116667
729.606806	225.188541	43.133333
729.613844	222.725707	43.150000
728.497464	220.664042	43.166667
728.023033	218.379195	43.183333
727.388316	215.848840	43.200000
726.753801	213.017822	43.216667
725.637205	211.278291	43.233333
724.680687	210.094433	43.250000
724.366323	208.380381	43.266667
723.891674	206.421273	43.283333
723.577918	203.801199	43.300000
722.622206	201.413377	43.316667
721.826776	199.276052	43.333333
721.352118	197.330887	43.350000
720.396397	194.956188	43.366667
719.921734	193.017793	43.383333
719.447472	190.481139	43.400000
718.652230	188.063169	43.416667
718.177761	185.835765	43.433333
717.543202	183.071156	43.450000
716.266086	181.435597	43.466667
715.951897	179.461387	43.483333
715.156241	177.660981	43.500000
714.521271	175.509375	43.516667
713.725810	173.418611	43.533333
713.090438	171.867334	43.550000
712.294774	170.079273	43.566667
711.819887	168.475744	43.583333
711.024220	166.693217	43.600000
710.549329	165.094411	43.616667
709.593170	163.374436	43.633333
709.278961	161.429348	43.650000
708.643971	159.307764	43.666667
708.008782	157.483072	43.683333
707.534471	155.019137	43.700000
706.738985	152.966206	43.716667
706.103984	150.860084	43.733333
705.468981	148.757827	43.750000
704.513193	146.483048	43.766667
704.038478	144.622008	43.783333
703.082297	142.935249	43.800000
702.286408	141.483682	43.816667
701.811494	139.920070	43.833333
701.015601	138.472891	43.850000
700.701366	136.568268	43.866667
699.905663	134.838017	43.883333
699.109959	133.110748	43.900000
698.474549	131.616273	43.916667
697.839329	129.837371	43.933333
697.204107	128.061433	43.950000
696.568883	126.288461	43.966667
695.772978	124.861003	43.983333
695.298238	123.036351	44.000000
694.502330	121.613639	44.016667
694.027777	119.510324	44.033333
693.232056	117.808980	44.050000
692.436142	116.393936	44.066667
691.961204	114.866618	44.083333
691.165476	113.173359	44.100000
690.530046	111.708008	44.116667
689.734316	110.020279	44.133333
688.938206	108.898389	44.150000
688.463260	107.382336	44.166667
687.667335	105.983009	44.183333
687.192199	104.751753	44.200000
686.717436	102.961788	44.216667
685.921508	101.569029	44.233333
685.446741	99.784557	44.250000
684.651183	97.838835	44.266667
683.855250	96.453737	44.283333
683.380478	94.678139	44.300000
682.423866	93.632801	44.316667
682.109393	92.082269	44.333333
681.153337	90.209412	44.350000
680.838860	88.663936	44.366667
680.203591	86.959213	44.383333
679.086854	85.429563	44.400000
678.290539	84.614202	44.416667
677.655080	83.192183	44.433333
677.019435	82.047093	44.450000
676.865439	80.456903	44.466667
675.909366	78.607858	44.483333
675.273718	77.468534	44.500000
674.638251	76.057424	44.516667
673.681807	74.763337	44.533333
673.206643	73.571768	44.550000
672.250014	72.554003	44.566667
671.935336	71.308037	44.583333
671.139193	70.235897	44.600000
670.503537	69.107844	44.616667
670.028550	67.652774	44.633333
669.393255	65.986664	44.650000
668.597288	64.651231	44.666667
668.122296	63.203046	44.683333
667.005350	61.986949	44.700000
666.690663	60.754871	44.716667
665.734022	59.754255	44.733333
665.258845	58.582696	44.750000
664.623359	57.201820	44.766667
663.827382	55.880634	44.783333
663.352202	54.714222	44.800000
662.716711	53.339531	44.816667
661.920731	52.024546	44.833333
661.285059	50.920813	44.850000
660.167920	49.991212	44.866667
659.692556	49.099043	44.883333
659.217369	47.942037	44.900000
658.421027	47.167153	44.916667
658.106504	45.690116	44.933333
657.310515	44.387924	44.950000
656.674659	43.559393	44.966667
656.039156	42.203286	44.983333
654.921832	41.549930	45.000000
654.767615	40.288379	45.016667
653.971620	38.995324	45.033333
653.496424	37.852259	45.050000
652.539761	36.883503	45.066667
651.582922	36.178733	45.083333
651.107547	35.302135	45.100000
650.311195	34.541732	45.116667
649.835819	33.667085	45.133333
649.360618	32.531926	45.150000
648.403775	31.832338	45.166667
647.928572	30.699915	45.183333
647.132216	29.944915	45.200000
646.175371	29.248540	45.216667
645.860306	28.582808	45.233333
645.063948	27.830520	45.250000
644.588741	26.704182	45.266667
643.953044	25.637010	45.283333
643.477661	24.772834	45.300000
642.520986	23.823727	45.316667
641.724451	23.335738	45.333333
641.249066	22.474496	45.350000
640.613192	21.671901	45.366667
639.816829	20.927965	45.383333
639.501931	20.011962	45.400000
638.705739	19.012537	45.416667
637.909373	18.271791	45.433333
637.273496	17.474335	45.450000
636.316469	17.049989	45.466667
636.001395	16.395394	45.483333
635.205028	15.658100	45.500000
634.890125	14.748656	45.516667
634.414905	13.642063	45.533333
633.297558	13.023394	45.550000
632.982653	12.117099	45.566667
631.865305	11.500415	45.583333
631.068762	11.024126	45.600000
630.593197	10.432929	45.616667
629.796653	9.957759	45.633333
629.481576	9.309926	45.650000
629.006179	8.466245	45.666667
627.888827	7.854532	45.683333
627.413260	7.266461	45.700000
626.616714	6.794452	45.716667
626.141315	5.954196	45.733333
625.665746	5.367962	45.750000
624.869369	4.644939	45.766667
624.554288	4.002222	45.783333
623.597252	3.591139	45.800000
622.800704	3.122850	45.816667
622.164644	2.597343	45.833333
621.528584	2.072392	45.850000
620.892355	1.799779	45.866667
620.095806	1.333545	45.883333
619.138599	1.177139	45.900000
618.663026	0.596266	45.916667
618.187285	0.267117	45.933333
617.711544	-0.061784	45.950000
617.235634	-0.139446	45.966667
616.599404	-0.410173	45.983333
616.123662	-0.738448	46.000000
615.326942	-0.950869	46.016667
614.690712	-1.220839	46.033333
614.054480	-1.490556	46.050000
613.578738	-1.817830	46.066667
613.102995	-2.144855	46.083333
612.627420	-2.721649	46.100000
611.670211	-2.874609	46.116667
611.033979	-3.142945	46.133333
610.237258	-3.353209	46.150000
609.761515	-3.678861	46.166667
609.125282	-3.946440	46.183333
608.649705	-4.520816	46.200000
608.334450	-4.903428	46.216667
607.537895	-5.361226	46.233333
606.741173	-5.569722	46.250000
606.426083	-6.200089	46.266667
605.468872	-6.350118	46.283333
604.672150	-6.557727	46.300000
604.035916	-6.822923	46.316667
603.560336	-7.393781	46.333333
602.763779	-7.848392	46.350000
602.288033	-8.170438	46.366667
601.491310	-8.376531	46.383333
600.855074	-8.640223	46.400000
600.058516	-9.093145	46.416667
599.422281	-9.356209	46.433333
598.465068	-9.503297	46.450000
597.989321	-9.823716	46.466667
597.353250	-10.332813	46.483333
596.396036	-10.479008	46.500000
595.599311	-10.682814	46.516667
594.642097	-10.828491	46.533333
594.005861	-11.089657	46.550000
593.209135	-11.292695	46.566667
592.412409	-11.495477	46.583333
591.615683	-11.698003	46.600000
590.818957	-11.900274	46.616667
590.022231	-12.102289	46.633333
589.225340	-12.058487	46.650000
587.946982	-11.840959	46.666667
586.989767	-11.984558	46.683333
585.550921	-11.708925	46.700000
584.433052	-11.548996	46.716667
583.475508	-11.201654	46.733333
582.357311	-10.551139	46.750000
581.720908	-10.564860	46.766667
580.442386	-10.101736	46.783333
579.484678	-9.509127	46.800000
578.687622	-9.219679	46.816667
577.730078	-8.872340	46.833333
577.414324	-8.511249	46.850000
576.456780	-8.163915	46.866667
576.301515	-7.860662	46.883333
575.664948	-7.629110	46.900000
575.349358	-7.513334	46.916667
574.712627	-7.036368	46.933333
573.915571	-6.746932	46.950000
573.600146	-6.876565	46.966667
573.284393	-6.515383	46.983333
572.968803	-6.399609	47.000000
572.653378	-6.529236	47.016667
572.016811	-6.297683	47.033333
571.540897	-6.369354	47.050000
571.225472	-6.498850	47.066667
570.589070	-6.512501	47.083333
570.273645	-6.641870	47.100000
569.637242	-6.655389	47.116667
569.000839	-6.668841	47.133333
568.203948	-6.624331	47.150000
565.641516	-5.698006	47.166667
564.844461	-5.408529	47.183333
564.207894	-5.176947	47.200000
563.571327	-4.945365	47.216667
563.416226	-4.887469	47.233333
562.458846	-4.784963	47.250000
562.945700	-4.958653	47.266667
561.827831	-4.798182	47.283333
561.351753	-4.624489	47.300000
561.036327	-4.753435	47.316667
559.115851	-4.058651	47.333333
559.442380	-4.419121	47.350000
558.966466	-4.490033	47.366667
558.329899	-4.258430	47.383333
557.853985	-4.329273	47.400000
555.773019	-3.576550	47.416667
556.260037	-3.994732	47.433333
554.660538	-3.415704	47.450000
554.024135	-3.428496	47.466667
553.708545	-3.312689	47.483333
554.035074	-3.672842	47.500000
553.398507	-3.441222	47.516667
553.083245	-3.813914	47.533333
550.520814	-2.887404	47.550000
551.970764	-3.652722	47.566667
548.445563	-2.622822	47.583333
550.055839	-3.201912	47.600000
547.975036	-2.693109	47.616667
547.819936	-2.635199	47.633333
548.467442	-3.110797	47.650000
547.189084	-2.891400	47.666667
546.392191	-2.845668	47.683333
545.755788	-2.857780	47.700000
543.193356	-1.931154	47.716667
545.606238	-3.043571	47.733333
543.043807	-2.116930	47.750000
544.333268	-2.823889	47.766667
542.092140	-2.500136	47.783333
540.653129	-1.978873	47.800000
541.140146	-2.396069	47.816667
540.664231	-2.465692	47.833333
539.867339	-2.419408	47.850000
539.551749	-2.303566	47.866667
536.989643	-1.863249	47.883333
538.278941	-2.326634	47.900000
535.877161	-1.700902	47.916667
537.005970	-2.106371	47.933333
536.209077	-2.059809	47.950000
535.091207	-1.897326	47.966667
535.096758	-2.140260	47.983333
534.139376	-2.035566	48.000000
532.218899	-1.340428	48.016667
532.545427	-1.699085	48.033333
530.304135	-1.130804	48.050000
531.272456	-1.478386	48.066667
531.278169	-1.963677	48.083333
529.678670	-1.384356	48.100000
530.486826	-2.159063	48.116667
528.887489	-1.822147	48.133333
527.609130	-1.601024	48.150000
525.849141	-0.963726	48.166667
525.052086	-0.674045	48.183333
525.378451	-0.789917	48.200000
526.026119	-1.506184	48.216667
526.673624	-1.980112	48.233333
525.716566	-2.358635	48.250000
522.512341	-1.441709	48.266667
521.715285	-1.151994	48.283333
519.955297	-0.514618	48.300000
520.923780	-1.104125	48.316667
519.966397	-0.998242	48.333333
520.292763	-1.114132	48.350000
519.174891	-0.950235	48.366667
519.662069	-1.607340	48.383333
517.741592	-0.911962	48.400000
518.710236	-1.742670	48.416667
516.468943	-1.172778	48.433333
516.153677	-1.539511	48.450000
513.751734	-0.670215	48.466667
512.954516	-0.139180	48.483333
512.960066	-0.380449	48.500000
515.051970	-1.375062	48.516667
513.613282	-1.335727	48.533333
514.260948	-2.049574	48.550000
510.414767	-0.899484	48.566667
509.617711	-0.609688	48.583333
508.178700	-0.088056	48.600000
508.826043	-0.319893	48.616667
509.313220	-0.975381	48.633333
508.837303	-1.042212	48.650000
507.398454	-0.761201	48.666667
507.564653	-1.300283	48.683333
505.002220	-0.372844	48.700000
505.970702	-0.961095	48.716667
504.371364	-0.621829	48.733333
503.895446	-0.688260	48.750000
503.419529	-0.754626	48.766667
501.820190	-0.415138	48.783333
501.665089	-0.357168	48.800000
501.670799	-0.837392	48.816667
500.392277	-0.373617	48.833333
500.879453	-1.027511	48.850000
499.601091	-0.803615	48.866667
498.964685	-0.811546	48.883333
498.167950	-1.001143	48.900000
495.765846	0.108217	48.916667
498.018238	-0.943165	48.933333
495.295477	-0.197176	48.950000
496.263958	-0.784628	48.966667
494.985757	-0.799757	48.983333
493.546746	-0.277922	49.000000
494.354898	-1.046553	49.016667
492.113604	-0.474043	49.033333
490.835082	-0.010166	49.050000
492.445518	-0.829216	49.066667
489.401779	0.033385	49.083333
491.654170	-1.017508	49.100000
489.894342	-0.618657	49.116667
488.776468	-0.451683	49.133333
488.942505	-0.748561	49.150000
486.701370	-0.414267	49.166667
486.867247	-0.472260	49.183333
485.428396	-0.189018	49.200000
484.631340	0.100949	49.216667
485.279003	-0.608227	49.233333
483.840151	-0.324774	49.250000
485.129610	-1.027197	49.266667
482.888314	-0.453617	49.283333
481.128485	-0.053948	49.300000
481.775988	-0.524202	49.316667
479.053226	0.223621	49.333333
480.182036	-0.182388	49.350000
480.187583	-0.420518	49.366667
478.106776	0.095453	49.383333
480.519656	-1.012608	49.400000
477.155098	-0.270334	49.416667
476.518531	-0.038310	49.433333
476.845215	-0.629894	49.450000
474.282782	0.298234	49.466667
475.732729	-0.461530	49.483333
473.330944	0.170987	49.500000
473.817957	-0.240606	49.516667
473.502686	-0.599528	49.533333
471.261390	-0.024719	49.550000
472.069381	-0.552105	49.566667
470.470040	-0.209205	49.583333
469.672984	0.080874	49.600000
470.801952	-0.562428	49.616667
467.597723	0.360793	49.633333
468.405714	-0.166355	49.650000
467.287839	0.002781	49.666667
466.972249	0.118821	49.683333
467.941046	-0.939938	49.700000
465.378613	-0.011578	49.716667
464.742205	-0.016232	49.733333
464.587421	-0.431518	49.750000
462.506613	0.086259	49.766667
463.154115	-0.382346	49.783333
460.912659	0.430038	49.800000
462.041469	0.023845	49.816667
462.207663	-0.506993	49.833333
460.287343	-0.046947	49.850000
460.935003	-0.751511	49.866667
458.212240	-0.001081	49.883333
457.415342	0.053031	49.900000
457.420730	0.053031	49.916667
455.660899	0.455423	49.933333
457.431822	-0.418900	49.950000
455.993127	-0.368255	49.966667
455.517206	-0.429889	49.983333
456.004376	-1.075331	50.000000
451.355588	0.607853	50.016667
453.126511	-0.266155	50.033333
451.366680	0.136816	50.050000
451.853535	-0.037312	50.066667
452.019727	-0.566164	50.083333
449.457451	0.127250	50.100000
449.302508	-0.049946	50.116667
449.468543	-0.343176	50.133333
447.708711	0.060233	50.150000
448.516701	-0.465071	50.166667
446.275402	0.112634	50.183333
446.601926	-0.238399	50.200000
445.323718	-0.243660	50.216667
444.366173	0.104660	50.233333
444.211229	-0.072028	50.250000
443.093353	0.099677	50.266667
442.938409	-0.076884	50.283333
443.104443	-0.369499	50.300000
441.023633	0.150757	50.316667
442.152757	-0.724462	50.333333
438.627548	0.318561	50.350000
439.274891	0.086317	50.366667
438.638481	0.084323	50.383333
438.002070	0.082395	50.400000
439.291526	-0.616233	50.416667
437.050384	-0.271386	50.433333
435.451040	0.075346	50.450000
436.740496	-0.623062	50.466667
434.178219	0.072219	50.483333
434.665230	-0.335732	50.500000
432.423931	0.243569	50.516667
432.268673	0.535312	50.533333
432.916330	-0.164259	50.550000
432.119430	-0.107456	50.566667
431.643664	-0.400164	50.583333
430.365298	-0.168937	50.600000
429.087088	-0.170878	50.616667
428.611009	0.003354	50.633333
427.172154	0.292876	50.650000
427.177542	0.292876	50.666667
427.343731	-0.231372	50.683333
426.386342	-0.115884	50.700000
426.391886	-0.348816	50.716667
425.113519	-0.117028	50.733333
423.835309	-0.117907	50.750000
423.359386	-0.176332	50.766667
421.599397	0.462611	50.783333
421.765273	0.404525	50.800000
421.449995	0.055535	50.816667
421.295050	-0.118869	50.833333
421.621572	-0.467481	50.850000
419.861894	-0.293170	50.866667
419.064993	-0.234957	50.883333
417.786626	-0.002396	50.900000
416.508103	0.462351	50.916667
416.673980	0.404257	50.933333
416.519035	0.230239	50.950000
416.043267	-0.059519	50.966667
415.727988	-0.407129	50.983333
415.252220	-0.696397	51.000000
412.689941	0.001522	51.016667
411.893040	0.060411	51.033333
411.095984	0.350920	51.050000
412.064460	-0.229247	51.066667
410.465115	0.120291	51.083333
410.791636	-0.227349	51.100000
410.155223	-0.226300	51.116667
408.716521	-0.165897	51.133333
407.919465	0.124640	51.150000
407.283207	-0.105225	51.166667
405.683707	0.475869	51.183333
406.812671	-0.161954	51.200000
405.052837	0.246271	51.216667
406.021313	-0.333330	51.233333
405.063922	-0.215528	51.250000
403.464731	-0.095944	51.266667
403.309784	-0.268513	51.283333
401.068483	0.314497	51.300000
400.913382	0.372614	51.316667
400.918924	0.142061	51.333333
400.603643	-0.202629	51.350000
400.609186	-0.433004	51.366667
398.688862	0.034137	51.383333
398.373426	-0.079864	51.400000
396.934568	0.213060	51.416667
395.816688	0.389812	51.433333
396.785010	0.041066	51.450000
395.988108	0.101632	51.466667
395.030870	-0.009538	51.483333
394.875924	-0.181283	51.500000
392.795264	0.114837	51.516667
393.282119	-0.059552	51.533333
392.324881	-0.170077	51.550000
390.564891	0.469373	51.566667
392.175322	-0.341508	51.583333
390.094508	0.184725	51.600000
390.902648	-0.564761	51.616667
388.019390	0.252373	51.633333
387.222487	0.313815	51.650000
388.030320	0.023128	51.666667
387.554548	-0.260770	51.683333
386.436667	-0.082856	51.700000
385.800253	-0.079293	51.716667
383.237972	0.622040	51.733333
385.329716	-0.133807	51.750000
382.446610	0.455086	51.766667
383.896399	-0.068209	51.783333
383.099649	-0.234927	51.800000
381.660790	0.059763	51.816667
380.863886	0.121937	51.833333
379.746158	0.072041	51.850000
378.628124	0.479088	51.866667
380.078065	-0.272636	51.883333
377.676273	0.371314	51.900000
379.126214	-0.380303	51.916667
376.724574	0.035673	51.933333
376.248648	-0.017928	51.950000
375.612233	-0.013309	51.966667
373.852396	0.398475	51.983333
374.178762	0.282161	52.000000
374.505433	-0.289848	52.016667
372.424618	0.238468	52.033333
373.553581	-0.396346	52.050000
370.349496	0.311687	52.066667
371.638795	-0.153612	52.083333
370.842043	-0.317749	52.100000
368.600587	0.496551	52.116667
369.248235	-0.190804	52.133333
367.327756	0.507190	52.150000
368.617208	-0.185396	52.166667
367.338989	-0.174382	52.183333
365.418662	0.296582	52.200000
367.189580	-0.570300	52.216667
364.306320	0.249834	52.233333
363.990730	0.366178	52.250000
364.638530	-0.546979	52.266667
361.594628	0.558335	52.283333
362.562950	0.209288	52.300000
360.803263	0.395897	52.316667
360.969140	0.337721	52.333333
362.419232	-0.638959	52.350000
360.017590	-0.219120	52.366667
359.381174	-0.212724	52.383333
357.781824	0.142828	52.400000
355.861345	0.841010	52.416667
357.471774	0.032995	52.433333
355.872424	0.388694	52.450000
357.161875	-0.302852	52.466667
356.044144	-0.347526	52.483333
354.444945	-0.217375	52.500000
353.969018	-0.268577	52.516667
351.406734	0.436757	52.533333
351.572460	0.604260	52.550000
352.380595	-0.138023	52.566667
350.620756	0.276506	52.583333
352.231184	-0.530933	52.600000
349.669051	-0.050687	52.616667
348.872146	0.014960	52.633333
347.754262	0.197067	52.650000
346.154912	0.553838	52.666667
346.962745	0.262851	52.683333
345.844861	0.445099	52.700000
346.171378	0.103626	52.716667
346.658534	-0.520954	52.733333
344.256889	-0.097661	52.750000
344.262428	-0.322433	52.766667
342.181610	0.209513	52.783333
341.545193	0.217691	52.800000
341.229754	0.109523	52.816667
340.272208	0.458762	52.833333
340.598724	0.117831	52.850000
340.283285	0.009789	52.866667
338.523595	0.201362	52.883333
340.455001	-0.721441	52.900000
337.090271	0.276785	52.916667
335.651409	0.576555	52.933333
335.175330	0.751194	52.950000
335.341358	0.468903	52.966667
336.149340	-0.046189	52.983333
335.352734	-0.426821	53.000000
334.234849	-0.243078	53.016667
334.080048	-0.632238	53.033333
330.554829	0.425022	53.050000
331.683640	0.017475	53.066667
329.442182	0.832570	53.083333
330.892121	0.085055	53.100000
330.095214	0.152702	53.116667
329.137967	0.055302	53.133333
329.303994	-0.226204	53.150000
328.346747	-0.323227	53.166667
325.623973	0.443552	53.183333
325.629510	0.220525	53.200000
324.190498	0.744588	53.216667
326.442731	-0.070620	53.233333
325.645973	-0.225352	53.250000
324.367748	-0.205133	53.266667
322.126440	0.387411	53.283333
321.650510	0.339460	53.300000
320.853602	0.408043	53.316667
321.340457	0.233336	53.333333
320.222721	0.195988	53.350000
320.067769	0.031816	53.366667
319.912966	-0.354587	53.383333
318.955569	-0.227375	53.400000
317.356216	0.132874	53.416667
315.435737	0.831775	53.433333
315.601763	0.551442	53.450000
315.928277	0.212921	53.466667
314.650051	0.234990	53.483333
316.099988	-0.511077	53.500000
314.179806	-0.255646	53.516667
311.938349	0.559827	53.533333
312.104374	0.279917	53.550000
311.146977	0.407813	53.566667
311.313002	0.128022	53.583333
310.516242	-0.023620	53.600000
309.558845	0.104540	53.616667
308.440958	0.291024	53.633333
307.804539	0.302814	53.650000
307.649438	0.361069	53.666667
307.013166	0.151818	53.683333
306.537235	0.105544	53.700000
306.863897	-0.452889	53.716667
303.820143	0.433190	53.733333
303.665042	0.491451	53.750000
303.349600	0.387179	53.766667
302.552691	0.457756	53.783333
303.039694	0.062294	53.800000
302.082444	-0.029288	53.816667
300.964557	0.158080	53.833333
301.130729	-0.340986	53.850000
298.247463	0.487537	53.866667
299.215785	0.137925	53.883333
297.937556	0.163660	53.900000
297.461477	0.338471	53.916667
297.306671	-0.043431	53.933333
295.867806	0.261029	53.950000
295.873341	0.041097	53.966667
295.237068	-0.165488	53.983333
294.279669	-0.035581	54.000000
293.964226	-0.138715	54.016667
291.883405	0.399276	54.033333
291.888940	0.179717	54.050000
290.770905	0.587672	54.066667
290.134337	0.820790	54.083333
291.584420	-0.142662	54.100000
290.787657	-0.289952	54.116667
289.830405	-0.378705	54.133333
288.873006	-0.248129	54.150000
286.471206	0.407093	54.166667
286.797572	0.290520	54.183333
284.877385	0.552030	54.200000
285.364094	0.596102	54.216667
286.172220	-0.133159	54.233333
284.251887	0.347496	54.250000
285.380991	-0.497998	54.266667
282.497870	0.114054	54.283333
281.700813	0.405521	54.300000
281.545858	0.245309	54.316667
279.946357	0.828253	54.333333
280.914971	0.041656	54.350000
280.278696	-0.161748	54.366667
278.037238	0.654423	54.383333
280.129275	-0.539803	54.400000
276.764540	0.466419	54.416667
277.412030	0.015202	54.433333
276.294142	0.205361	54.450000
275.657720	0.220681	54.466667
275.342421	-0.098310	54.483333
273.421941	0.601349	54.500000
274.069577	-0.067221	54.516667
273.112177	0.065037	54.533333
271.833944	0.096523	54.550000
272.320945	-0.295807	54.566667
270.561100	0.128271	54.583333
270.406144	-0.030692	54.600000
269.288255	0.160282	54.616667
267.046797	0.976662	54.633333
269.620009	0.043656	54.650000
267.699820	0.309183	54.666667
267.705353	0.092157	54.683333
267.871666	-0.616886	54.700000
264.827908	0.274381	54.716667
265.314908	-0.117296	54.733333
263.715551	0.249249	54.750000
262.115904	1.049102	54.766667
264.528773	-0.042354	54.783333
261.324525	0.907480	54.800000
263.577050	-0.342035	54.816667
261.656860	-0.074911	54.833333
261.181070	-0.332454	54.850000
259.260735	0.151308	54.866667
258.303334	0.285177	54.883333
257.345788	0.635149	54.900000
258.474744	0.010809	54.916667
255.751963	0.786445	54.933333
258.485809	-0.421093	54.950000
255.281706	0.313896	54.966667
257.052618	-0.543505	54.983333
254.811593	-0.373661	55.000000
252.891257	0.110893	55.016667
251.933855	0.245498	55.033333
251.457776	0.420513	55.050000
250.500230	0.770543	55.066667
252.752609	-0.261557	55.083333
250.190461	0.241341	55.100000
251.640538	-0.714033	55.116667
249.078246	0.004394	55.133333
248.281333	0.081122	55.150000
245.879529	0.741368	55.166667
245.884773	0.956287	55.183333
246.532262	0.507987	55.200000
246.698426	0.019973	55.216667
245.580679	-0.001023	55.233333
246.388800	-0.721963	55.250000
242.703227	0.191169	55.266667
243.511061	-0.100591	55.283333
241.430235	0.443618	55.300000
240.954156	0.618677	55.316667
241.601644	0.170955	55.333333
239.520818	0.715314	55.350000
240.489427	-0.063130	55.366667
239.692656	-0.199422	55.383333
238.093297	0.170219	55.400000
237.938340	0.014697	55.416667
237.141569	-0.121082	55.433333
235.381578	0.520895	55.450000
235.387109	0.307203	55.466667
234.108728	0.560476	55.483333
234.916704	0.055087	55.500000
233.317345	0.425224	55.516667
234.285953	-0.351812	55.533333
233.007714	-0.311476	55.550000
231.408355	0.059005	55.566667
229.808995	0.429563	55.583333
230.295850	0.254452	55.600000
229.017469	0.508341	55.616667
230.306912	-0.171649	55.633333
227.905250	0.278087	55.650000
228.873714	-0.284992	55.666667
226.472052	0.165149	55.683333
225.996115	0.127630	55.700000
224.236124	0.769777	55.716667
225.204588	0.206930	55.733333
223.123619	0.965843	55.750000
224.413062	0.286297	55.766667
222.974333	0.386852	55.783333
224.263918	-0.504824	55.800000
221.862254	-0.053466	55.816667
221.386459	-0.302450	55.833333
218.663533	0.690106	55.850000
218.668921	0.690106	55.866667
218.032353	0.923648	55.883333
219.321796	0.244594	55.900000
218.846142	-0.215795	55.916667
218.370205	-0.252358	55.933333
216.129172	-0.069703	55.950000
215.171625	0.280651	55.966667
213.732895	0.383298	55.983333
213.577794	0.441692	56.000000
213.262204	0.558481	56.016667
213.588853	0.019043	56.033333
211.508025	0.566963	56.050000
213.118304	-0.017004	56.066667
211.198247	0.050434	56.083333
211.524896	-0.488290	56.100000
209.604557	0.001656	56.116667
207.523587	0.760879	56.133333
207.850094	0.433278	56.150000
206.250733	0.806574	56.166667
206.898077	0.572960	56.183333
207.706193	-0.140359	56.200000
207.069907	-0.327799	56.216667
206.273131	-0.456583	56.233333
204.352932	-0.176245	56.250000
202.272103	0.372905	56.266667
202.437980	0.314494	56.283333
200.517499	1.015428	56.300000
201.806800	0.548138	56.316667
200.849535	0.478428	56.333333
201.497020	0.034773	56.350000
201.663319	-0.653305	56.366667
199.422141	-0.254939	56.383333
197.822779	0.119605	56.400000
197.346840	0.085288	56.416667
194.784403	1.020001	56.433333
196.394681	0.435805	56.450000
195.276786	0.635238	56.466667
195.763782	0.250529	56.483333
196.411547	-0.611160	56.500000
193.528412	0.022120	56.516667
193.373451	-0.128539	56.533333
191.292621	0.421987	56.550000
190.495564	0.714123	56.566667
190.982559	0.329886	56.583333
189.704174	0.588419	56.600000
191.635571	-0.321569	56.616667
189.555020	-0.188127	56.633333
187.634539	0.513059	56.650000
188.442652	-0.196227	56.666667
186.201193	0.621847	56.683333
187.009306	-0.087199	56.700000
185.409943	0.288814	56.716667
184.612885	0.580996	56.733333
184.779041	0.106057	56.750000
183.179817	0.274185	56.766667
183.827162	0.040426	56.783333
183.672340	-0.317157	56.800000
181.591648	0.026812	56.816667
182.078642	-0.356316	56.833333
179.355855	0.429503	56.850000
179.361382	0.221835	56.866667
178.403975	0.364904	56.883333
177.285939	0.774029	56.900000
179.056846	-0.076432	56.916667
178.099578	-0.140663	56.933333
177.142309	-0.204640	56.950000
176.826996	-0.502172	56.966667
173.622602	0.666872	56.983333
174.912042	-0.007865	57.000000
172.831210	0.544975	57.016667
172.515482	0.868931	57.033333
174.126038	-0.129655	57.050000
171.884856	0.274913	57.066667
172.853456	-0.489400	57.083333
170.291295	0.032613	57.100000
168.852281	0.558751	57.116667
169.981369	-0.263545	57.133333
167.098092	0.582323	57.150000
167.905925	0.290012	57.166667
167.590612	-0.005767	57.183333
165.830620	0.637336	57.200000
166.799219	-0.125908	57.216667
164.558035	0.280405	57.233333
165.526496	-0.276418	57.250000
164.569225	-0.337464	57.266667
162.327904	0.275283	57.283333
161.851962	0.244927	57.300000
160.413086	0.565468	57.316667
160.418336	0.771170	57.333333
162.028891	-0.224905	57.350000
159.787569	0.388136	57.366667
161.398261	-0.813020	57.383333
158.194142	-0.054116	57.400000
157.718063	0.121317	57.416667
157.081769	-0.055147	57.433333
154.037727	1.261110	57.450000
156.129473	0.500885	57.466667
155.814158	0.207596	57.483333
154.856749	0.353448	57.500000
155.985972	-0.670679	57.516667
152.300248	0.469662	57.533333
153.268845	-0.290648	57.550000
151.188011	0.265069	57.566667
150.230465	0.615991	57.583333
150.556968	0.294475	57.600000
149.439206	0.294993	57.616667
149.444731	0.090633	57.633333
149.289904	-0.259422	57.650000
147.369559	0.238306	57.666667
147.696062	-0.082798	57.683333
145.454876	0.328073	57.700000
146.102357	-0.109842	57.716667
144.984457	0.095759	57.733333
143.866558	0.301430	57.750000
143.872083	0.097681	57.766667
142.433205	0.420484	57.783333
142.599219	0.158360	57.800000
142.765368	-0.307218	57.816667
141.166001	0.074357	57.833333
140.690195	-0.156842	57.850000
138.769849	0.341953	57.866667
138.133144	0.779226	57.883333
138.780761	0.138755	57.900000
137.662861	0.345163	57.916667
138.149989	-0.236454	57.933333
137.032089	-0.029851	57.950000
135.593211	0.293841	57.966667
136.240827	-0.345809	57.983333
133.197057	0.563208	58.000000
133.684049	0.185024	58.016667
131.924192	0.626090	58.033333
132.250558	0.509062	58.050000
132.898174	-0.129987	58.066667
130.977828	0.369801	58.083333
131.143976	-0.093340	58.100000
131.310124	-0.556251	58.116667
129.068935	-0.141114	58.133333
127.790545	0.125081	58.150000
126.030553	0.768824	58.166667
126.517408	0.593258	58.183333
127.325377	0.098733	58.200000
126.689079	-0.070821	58.216667
126.052781	-0.240130	58.233333
124.774526	-0.175082	58.250000
123.496135	0.091654	58.266667
122.859702	0.124343	58.283333
122.223268	0.157097	58.300000
121.265856	0.306978	58.316667
120.629422	0.339864	58.333333
119.671875	0.691055	58.350000
119.998511	0.171695	58.366667
119.522567	0.146237	58.383333
119.046756	-0.080096	58.400000
118.891924	-0.423261	58.416667
116.811088	0.136972	58.433333
115.853675	0.287512	58.450000
114.254306	0.672279	58.466667
114.580673	0.555200	58.483333
115.388641	0.061930	58.500000
114.591852	-0.046325	58.516667
114.116175	-0.471690	58.533333
112.356316	-0.027905	58.550000
111.559393	0.064679	58.566667
110.281001	0.332971	58.583333
110.447013	0.074403	58.600000
108.847509	0.659882	58.616667
109.816100	-0.091266	58.633333
107.895752	0.411494	58.650000
108.543364	-0.222204	58.666667
106.783505	0.222213	58.683333
106.628538	0.081172	58.700000
106.794682	-0.376395	58.716667
104.553356	0.243968	58.733333
103.274830	0.712415	58.750000
103.601330	0.395958	58.766667
102.322938	0.665131	58.783333
104.093974	-0.377405	58.800000
102.173625	0.126199	58.816667
101.697813	-0.096152	58.833333
100.580043	-0.084007	58.850000
99.783118	0.010006	58.866667
98.504726	0.279780	58.883333
96.905222	0.865427	58.900000
97.231589	0.748298	58.916667
98.681646	-0.176085	58.933333
96.761429	0.129662	58.950000
97.248551	-0.442861	58.966667
94.525889	0.156259	58.983333
94.210298	0.273401	59.000000
93.413506	0.169941	59.016667
92.616448	0.462804	59.033333
92.301123	0.183878	59.050000
92.306644	-0.014070	59.066667
90.386294	0.490949	59.083333
91.515371	-0.314678	59.100000
89.595022	0.190549	59.116667
89.600542	-0.007095	59.133333
88.803749	-0.109304	59.150000
86.883399	0.396207	59.166667
87.209898	0.081646	59.183333
85.771015	0.411552	59.200000
85.616046	0.272861	59.216667
86.263523	-0.158692	59.233333
83.701348	0.384422	59.250000
84.669804	-0.164130	59.266667
82.107497	0.576294	59.283333
82.273374	0.517706	59.300000
82.760625	-0.248612	59.316667
80.519164	0.571648	59.333333
81.808729	-0.290475	59.350000
79.888511	0.019473	59.366667
78.449627	0.350330	59.383333
78.455147	0.153907	59.400000
76.855775	0.543498	59.416667
77.824229	-0.004378	59.433333
77.508902	-0.279613	59.450000
75.267704	0.148583	59.466667
75.433713	-0.106016	59.483333
73.031894	0.577057	59.500000
74.160838	-0.029027	59.516667
72.240486	0.478384	59.533333
71.603918	0.712795	59.550000
73.856417	-0.499100	59.566667
71.936196	-0.187059	59.583333
71.460379	-0.402213	59.600000
69.379669	-0.031036	59.616667
67.138077	0.984807	59.633333
69.069467	0.086182	59.650000
66.828137	0.711447	59.666667
67.314992	0.535618	59.683333
68.444197	-0.460099	59.700000
66.042377	0.224058	59.716667
67.010962	-0.517496	59.733333
63.967447	0.011839	59.750000
62.528432	0.539388	59.766667
62.694439	0.286116	59.783333
60.452978	1.106760	59.800000
63.186683	0.110264	59.816667
62.550505	-0.238882	59.833333
61.432729	-0.217320	59.850000
61.277888	-0.547239	59.866667
58.715579	0.196555	59.883333
58.400249	-0.074361	59.900000
56.158918	0.552408	59.916667
55.843197	0.863642	59.933333
57.293118	0.142027	59.950000
56.335831	0.105989	59.966667
56.020500	-0.164314	59.983333
55.223701	-0.258486	60.000000
53.463838	0.192888	60.016667
53.308866	0.058016	60.033333
51.067664	0.492054	60.050000
50.912434	0.744064	60.066667
51.720527	0.064199	60.083333
49.960663	0.515923	60.100000
51.410583	-0.204997	60.116667
49.169381	0.229697	60.133333
49.175028	-0.156280	60.150000
48.057249	-0.131540	60.166667
45.815917	0.496660	60.183333
45.660816	0.555301	60.200000
45.826823	0.303949	60.216667
45.190383	0.345869	60.233333
45.998604	-0.524955	60.250000
43.436293	0.220961	60.266667
43.762917	-0.280975	60.283333
42.324031	0.054625	60.300000
41.848209	-0.153706	60.316667
40.730172	0.256842	60.333333
39.772754	0.416701	60.350000
39.136313	0.459324	60.366667
39.462808	0.150098	60.383333
38.345029	0.177003	60.400000
38.992631	-0.441045	60.416667
36.269830	0.364477	60.433333
36.917303	-0.061708	60.450000
35.478545	0.083268	60.466667
34.520998	0.435218	60.483333
33.724068	0.537138	60.500000
34.371541	0.111185	60.516667
32.772293	0.315341	60.533333
33.901233	-0.286428	60.550000
31.178432	0.519760	60.566667
32.307501	-0.272852	60.583333
30.066295	0.166730	60.600000
29.108748	0.518726	60.616667
28.793413	0.254584	60.633333
28.317333	0.430587	60.650000
28.001998	0.166689	60.666667
27.847152	-0.155640	60.683333
26.889860	-0.184374	60.700000
25.932567	-0.212857	60.716667
23.691106	0.608572	60.733333
23.536005	0.667246	60.750000
23.381031	0.535761	60.766667
23.065568	0.463012	60.783333
23.392189	-0.034363	60.800000
22.595385	-0.120765	60.816667
21.798581	-0.206918	60.833333
20.520182	0.072839	60.850000
18.760443	0.339157	60.866667
18.123747	0.763435	60.883333
18.129389	0.384392	60.900000
17.653309	0.560439	60.916667
18.782376	-0.229156	60.933333
17.504230	-0.327454	60.950000
15.904852	0.070277	60.966667
14.787069	0.103006	60.983333
12.706096	0.865958	61.000000
13.192952	0.689892	61.016667
13.840550	0.077298	61.033333
12.883256	0.051842	61.050000
13.530854	-0.560295	61.066667
10.005731	0.353849	61.083333
10.332097	0.236460	61.100000
9.214313	0.270458	61.116667
9.219827	0.082113	61.133333
8.583384	0.128616	61.150000
7.465599	0.163117	61.166667
7.150135	0.092413	61.183333
6.995286	-0.224916	61.200000
4.914313	0.538202	61.216667
5.080316	0.291582	61.233333
4.443999	0.150735	61.250000
4.289024	0.021699	61.266667
3.813195	-0.177489	61.283333
1.250881	0.574254	61.300000
1.416884	0.328053	61.316667
0.940929	0.316742	61.333333
0.304486	0.364202	61.350000
