Thu Nov 07 15:13:38 2013

Number of Points = 3680
Depth (nm)	Load (µN)	Time (s)
-7.037424	0.391517	0.000000
-6.231184	0.098096	0.016667
-5.746050	0.111419	0.033333
-5.902746	0.170103	0.050000
-6.059442	0.228786	0.066667
-5.413819	0.183488	0.083333
-5.570514	0.242171	0.100000
-5.245743	0.124805	0.116667
-5.402438	0.183488	0.133333
-5.559134	0.242171	0.150000
-5.074000	0.255618	0.166667
-5.230696	0.314299	0.183333
-4.905924	0.196936	0.200000
-4.741642	0.138254	0.216667
-4.898337	0.196936	0.233333
-4.733928	-0.051242	0.250000
-4.730261	0.138254	0.266667
-4.887084	0.386490	0.283333
-4.241334	0.151765	0.300000
-4.558519	0.269127	0.316667
-4.394363	0.400061	0.333333
-4.390570	0.400061	0.350000
-4.547266	0.458741	0.366667
-4.543473	0.458741	0.383333
-4.058339	0.472374	0.400000
-3.894056	0.413694	0.416667
-3.408795	0.237655	0.433333
-3.405001	0.237655	0.450000
-3.722187	0.355015	0.466667
-4.039372	0.472374	0.483333
-4.356684	0.779464	0.500000
-3.550572	0.675862	0.516667
-3.707267	0.734540	0.533333
-3.061517	0.499828	0.550000
-3.057724	0.499828	0.566667
-3.054057	0.689681	0.583333
-2.729158	0.382472	0.600000
-3.046471	0.689681	0.616667
-3.524145	0.865713	0.633333
-3.039011	0.879593	0.650000
-3.195707	0.938269	0.666667
-2.389595	0.834859	0.683333
-2.225312	0.776183	0.700000
-2.382008	0.834859	0.716667
-2.378215	0.834859	0.733333
-2.855889	1.010887	0.750000
-2.691734	1.142240	0.766667
-2.527451	1.083565	0.783333
-2.363296	1.214979	0.800000
-1.717546	0.980282	0.816667
-1.713752	0.980282	0.833333
-1.709959	0.980282	0.850000
-1.706165	0.980282	0.866667
-1.862989	1.229106	0.883333
-1.859195	1.229106	0.900000
-2.016019	1.477987	0.916667
-1.691247	1.360641	0.933333
-1.045496	1.125949	0.950000
-1.202320	1.374891	0.966667
-0.877548	1.257547	0.983333
-1.355222	1.433564	1.000000
-1.030450	1.316219	1.016667
-1.187146	1.374891	1.033333
-1.504459	1.682562	1.050000
-0.858709	1.447876	1.066667
-1.176021	1.755605	1.083333
-0.690888	1.770039	1.100000
-0.366116	1.652699	1.116667
-0.362323	1.652699	1.133333
-0.037551	1.535359	1.150000
-0.354736	1.652699	1.166667
-0.351070	1.843205	1.183333
-0.186787	1.784536	1.200000
-0.343483	1.843205	1.216667
0.141650	1.857764	1.233333
0.305933	1.799096	1.250000
0.309726	1.799096	1.266667
0.313647	1.608528	1.283333
0.317313	1.799096	1.300000
0.000000	2.107056	1.316667
0.003921	1.916432	1.333333
0.328310	2.371147	1.350000
1.134421	2.268620	1.366667
1.298448	2.591739	1.383333
1.943815	2.930205	1.400000
2.107713	3.445192	1.416667
2.913568	3.726080	1.433333
3.719422	4.007514	1.450000
4.043809	4.465453	1.466667
4.688916	5.190771	1.483333
5.334280	5.532840	1.500000
5.818767	6.511818	1.516667
7.266576	6.562304	1.533333
7.430471	7.082457	1.550000
8.717660	7.385919	1.566667
9.042044	7.848688	1.583333
9.847894	8.136101	1.600000
10.493255	8.482689	1.616667
10.817507	9.141066	1.633333
11.623226	9.624523	1.650000
12.428945	10.108942	1.666667
13.074304	10.458235	1.683333
14.040641	10.690842	1.700000
14.685999	11.041224	1.716667
15.491846	11.333540	1.733333
15.655737	11.860832	1.750000
16.461452	12.349830	1.766667
16.946188	12.956992	1.783333
17.752034	13.251842	1.800000
18.557747	13.743486	1.816667
19.524081	13.981016	1.833333
20.008947	14.394871	1.850000
20.814791	14.692088	1.866667
21.139167	15.165611	1.883333
21.784389	15.719695	1.900000
22.750721	15.960143	1.916667
23.396074	16.318301	1.933333
23.880938	16.735579	1.950000
24.526157	17.292787	1.966667
25.171509	17.652750	1.983333
26.137839	17.896119	2.000000
26.622568	18.514299	2.016667
27.428275	19.016305	2.033333
27.752647	19.495922	2.050000
28.397863	20.058167	2.066667
29.203568	20.562815	2.083333
30.169896	20.810193	2.100000
30.815244	21.175223	2.116667
31.460592	21.540796	2.133333
32.105940	21.906912	2.150000
32.751288	22.273572	2.166667
33.396635	22.640775	2.183333
33.881492	23.067060	2.200000
34.687328	23.376813	2.216667
35.172050	24.005287	2.233333
35.977750	24.517656	2.250000
36.622960	25.089514	2.266667
37.428793	25.401991	2.283333
37.913513	26.034053	2.300000
38.879835	26.289283	2.316667
39.364689	26.720612	2.333333
40.009896	27.296556	2.350000
40.655239	27.670634	2.366667
41.461070	27.986748	2.383333
42.106276	28.565098	2.400000
42.912242	28.679125	2.416667
43.397094	29.113883	2.433333
43.881809	29.752896	2.450000
44.527013	30.334367	2.466667
45.172216	30.916798	2.483333
45.977907	31.441700	2.500000
46.783735	31.762903	2.516667
47.429073	32.143139	2.533333
48.234763	32.670458	2.550000
48.880101	33.051962	2.566667
49.204460	33.550960	2.583333
50.170775	33.816604	2.600000
50.816111	34.199740	2.616667
51.461447	34.583422	2.633333
52.267272	34.909183	2.650000
52.431140	35.469342	2.666667
53.236687	36.209257	2.683333
54.042511	36.537014	2.700000
54.687706	37.130751	2.716667
55.172412	37.783897	2.733333
55.817606	38.379550	2.750000
56.944266	38.800834	2.766667
57.589598	39.190490	2.783333
58.074580	39.431083	2.800000
59.040890	39.704775	2.816667
59.365243	40.212756	2.833333
60.010574	40.604410	2.850000
60.816253	41.146938	2.866667
61.461443	41.748857	2.883333
62.106772	42.142504	2.900000
62.752101	42.536695	2.916667
63.236800	43.199437	2.933333
63.881988	43.804718	2.950000
64.687664	44.352550	2.966667
65.332850	44.959755	2.983333
65.977895	45.778513	3.000000

66.783851	45.907871	3.016667
67.428894	46.728732	3.033333
68.234850	46.858951	3.050000
68.719686	47.317514	3.066667
69.364869	47.929772	3.083333
70.170540	48.484605	3.100000
70.655375	48.945151	3.116667
71.621534	49.443293	3.133333
72.106368	49.905105	3.150000
72.751548	50.521695	3.166667
73.557216	51.080874	3.183333
74.202538	51.486301	3.200000
74.526738	52.222269	3.216667
75.332405	52.784098	3.233333
76.138071	53.346895	3.250000
76.943879	53.696683	3.266667
77.428566	54.377882	3.283333
78.073885	54.787295	3.300000
78.719203	55.197253	3.316667
79.203889	55.880849	3.333333
80.009407	56.663761	3.350000
80.654436	57.506510	3.366667
81.139118	58.193451	3.383333
81.944634	58.980558	3.400000
82.589660	59.827491	3.416667
83.074341	60.517777	3.433333
83.719219	61.584153	3.450000
84.524585	62.594361	3.466667
85.169607	63.447562	3.483333
85.975408	63.808611	3.500000
86.620428	64.664214	3.516667
87.426082	65.244839	3.533333
87.750122	66.219721	3.550000
88.716117	66.962931	3.566667
89.200644	67.882500	3.583333
90.166784	68.409419	3.600000
90.490967	69.170417	3.616667
91.135834	70.255422	3.633333
92.101971	70.785724	3.650000
92.426152	71.550058	3.666667
93.231504	72.581818	3.683333
93.716025	73.511227	3.700000
94.360885	74.605180	3.716667
95.005744	75.701277	3.733333
95.971728	76.461022	3.750000
96.616733	77.338750	3.766667
97.422375	77.937191	3.783333
98.067527	78.594830	3.800000
98.712679	79.253431	3.816667
99.036703	80.252698	3.833333
99.842043	81.302408	3.850000
100.487042	82.188514	3.866667
101.131890	83.300380	3.883333
102.097865	84.073369	3.900000
102.582523	84.797606	3.916667
102.906390	86.031235	3.933333
103.711722	87.092426	3.950000
104.356564	88.213954	3.966667
105.322230	89.447547	3.983333
105.806732	90.405274	4.000000
106.451417	91.760224	4.016667
107.256894	92.605197	4.033333
107.901881	93.509832	4.050000
108.867845	94.299658	4.066667
109.352494	95.037277	4.083333
110.158120	95.659562	4.100000
110.642768	96.399099	4.116667
111.127108	97.597402	4.133333
111.932578	98.452291	4.150000
112.417070	99.424939	4.166667
113.061741	100.800768	4.183333
113.867208	101.660753	4.200000
114.351541	102.869054	4.216667
115.156697	104.194281	4.233333
116.122649	105.001563	4.250000
116.767622	105.926551	4.266667
117.412750	106.621146	4.283333
117.897388	107.374793	4.300000
118.702848	108.245592	4.316667
119.187329	109.234056	4.333333
119.992630	110.340873	4.350000
120.798243	110.983167	4.366667
121.122232	112.034179	4.383333
121.927373	113.380350	4.400000
122.411692	114.611180	4.416667
123.056497	115.786100	4.433333
123.701144	117.198248	4.450000
124.667083	118.026309	4.466667
125.472689	118.678242	4.483333
126.117806	119.389177	4.500000
126.602117	120.631459	4.516667
127.247073	121.581298	4.533333
128.052676	122.237820	4.550000
128.697631	123.190364	4.566667
129.342744	123.907071	4.583333
129.987697	124.862316	4.600000
130.632649	125.819058	4.616667
131.277441	127.015521	4.633333
131.601253	128.330106	4.650000
132.567020	129.414893	4.666667
133.372456	130.320541	4.683333
134.017402	131.285668	4.700000
134.662348	132.252295	4.716667
135.146643	133.518555	4.733333
135.952075	134.430514	4.750000
136.757506	135.343981	4.766667
137.402447	136.316904	4.783333
138.047549	137.049967	4.800000
138.692488	138.025592	4.816667
139.337589	138.760823	4.833333
139.982527	139.739151	4.850000
140.948441	140.603127	4.866667
141.433213	141.156995	4.883333
141.757008	142.498028	4.900000
142.722756	143.609544	4.916667
143.207200	144.653280	4.933333
143.851968	145.884571	4.950000
144.496735	147.118011	4.966667
145.462641	147.993148	4.983333
145.947081	149.043459	5.000000
146.752661	149.734290	5.016667
147.397587	150.729420	5.033333
148.042677	151.480306	5.050000
148.687437	152.724180	5.066667
149.493014	153.419611	5.083333
150.138102	154.173876	5.100000
150.943678	154.871251	5.116667
151.267621	155.990205	5.133333
151.912541	156.994949	5.150000
152.557128	158.496654	5.166667
153.362534	159.447157	5.183333
154.007451	160.457001	5.200000
154.812855	161.410520	5.216667
155.618592	161.867714	5.233333
156.103184	162.690168	5.250000
156.908586	163.647319	5.266667
157.232688	164.529744	5.283333
158.198576	165.431801	5.300000
158.682998	166.508775	5.316667
159.328075	167.278956	5.333333
160.133472	168.243042	5.350000
160.778548	169.015400	5.366667
161.262797	170.349090	5.383333
162.068192	171.317695	5.400000
162.552607	172.403353	5.416667
163.518488	173.317207	5.433333
164.003071	174.153356	5.450000
164.487315	175.496012	5.466667
165.132045	176.783059	5.483333
165.937433	177.761003	5.500000
166.582331	178.798198	5.516667
167.387888	179.525112	5.533333
168.033125	180.056504	5.550000
168.678020	181.097322	5.566667
169.001938	182.255087	5.583333
169.967809	183.183464	5.600000
170.291553	184.599626	5.616667
171.417911	185.473620	5.633333
172.062973	186.266243	5.650000
172.547546	187.117532	5.666667
173.192434	188.168571	5.683333
174.158300	189.105735	5.700000
174.482382	190.018080	5.716667
175.127095	191.330704	5.733333
175.771980	192.387754	5.750000
176.577180	193.646665	5.766667
177.222062	194.707023	5.783333
177.866944	195.768884	5.800000
178.511825	196.832249	5.816667
179.156704	197.897117	5.833333
179.801583	198.963488	5.850000
180.606949	199.973726	5.866667
181.091163	201.360902	5.883333
182.217679	201.998744	5.900000
182.702589	202.346849	5.916667
183.186799	203.738355	5.933333
183.671184	204.870774	5.950000
184.476194	206.412584	5.966667
185.120889	207.752933	5.983333
185.765758	208.833140	6.000000
186.570939	210.119856	6.016667
187.055142	211.523907	6.033333
187.699655	213.135888	6.050000
188.665496	214.108158	6.066667
189.471202	214.611659	6.083333
189.955754	215.494925	6.100000
190.440127	216.643528	6.116667
191.245299	217.943252	6.133333
191.890159	219.037603	6.150000
192.695329	220.341303	6.166667
193.340365	221.173284	6.183333
193.985400	222.006235	6.200000
194.630256	223.106314	6.216667
194.953777	224.856023	6.233333
196.079917	226.054082	6.250000
196.403971	227.007365	6.266667
197.209132	228.324071	6.283333
198.014651	229.107250	6.300000
198.338523	230.331946	6.316667
199.143501	231.922546	6.333333
199.788348	233.035855	6.350000
200.432833	234.688975	6.366667
201.238347	235.478942	6.383333
201.722522	236.924310	6.400000
202.688161	238.199455	6.416667
203.333183	239.050765	6.433333
204.138694	239.845598	6.450000
204.623227	240.756297	6.466667
205.107396	242.210306	6.483333
206.073211	243.222608	6.500000
206.397071	244.466142	6.516667
207.202395	245.538900	6.533333
207.847230	246.670589	6.550000
208.491881	248.076533	6.566667
209.136714	249.211533	6.583333
209.620691	250.952295	6.600000
210.264970	252.912513	6.616667
211.391264	253.881366	6.633333
211.715115	255.138643	6.650000
212.680734	256.442803	6.666667
213.325744	257.313457	6.683333
213.970753	258.185082	6.700000
214.776065	259.275980	6.716667
215.260585	260.207144	6.733333
215.905221	261.634368	6.750000
216.550042	262.787145	6.766667
217.034188	264.275668	6.783333
217.839495	265.374423	6.800000
218.484127	266.809577	6.816667
219.128757	268.246892	6.833333
219.933874	269.629059	6.850000
220.257524	271.185307	6.866667
221.223127	272.514507	6.883333
222.028426	273.623844	6.900000
222.673424	274.512408	6.916667
223.318234	275.681760	6.933333
223.802554	276.909895	6.950000
224.768338	277.967720	6.966667
225.252657	279.198866	6.983333
225.736786	280.712572	7.000000
226.541890	282.113926	7.016667
227.026205	283.350168	7.033333
227.991984	284.416190	7.050000
228.636785	285.598210	7.066667
228.960419	287.178862	7.083333
229.926005	288.532768	7.100000
230.570803	289.719909	7.116667
231.376088	290.851351	7.133333
232.020883	292.041516	7.150000
232.666059	292.664819	7.166667
233.310853	293.857408	7.183333
233.795158	295.108696	7.200000
234.439759	296.589346	7.216667
235.084358	298.072158	7.233333
235.568277	299.900121	7.250000
236.373170	301.616680	7.266667
237.338741	302.992388	7.283333
237.823038	304.254779	7.300000
238.788800	305.347243	7.316667
239.273480	306.037740	7.333333
239.917877	307.822422	7.350000
240.402364	308.802754	7.366667
241.207440	310.246500	7.383333
242.012707	311.403690	7.400000
242.818168	312.273428	7.416667
243.302651	313.258359	7.433333
243.786746	314.823212	7.450000
244.591815	316.276033	7.466667
245.236590	317.497895	7.483333
245.560192	319.125944	7.500000
246.204380	321.223907	7.516667
247.169541	323.211573	7.533333
247.653626	324.790437	7.550000
248.619175	326.200312	7.566667
249.264137	327.141446	7.583333
249.908903	328.376271	7.600000
250.714156	329.555577	7.616667
251.198628	330.557144	7.633333
251.842998	332.383481	7.650000
252.487759	333.624649	7.666667
253.453299	335.047640	7.683333
254.098453	335.702956	7.700000
254.582723	337.005369	7.716667
255.387771	338.490459	7.733333
255.872238	339.500725	7.750000
256.516597	341.342235	7.766667
257.161153	342.890456	7.783333
257.645219	344.497806	7.800000
258.289175	346.941342	7.816667
259.254702	348.383235	7.833333
259.899451	349.643427	7.850000
260.544199	350.905132	7.866667
261.509921	352.054495	7.883333
261.994379	353.077552	7.900000
262.639124	354.343502	7.916667
263.123380	355.667876	7.933333
263.767922	357.236344	7.950000
264.412463	358.806980	7.966667
265.217692	360.022680	7.983333
266.022919	361.239906	8.000000
266.507169	362.572414	8.016667
267.151503	364.451821	8.033333
267.796239	365.731066	8.050000
268.440570	367.615522	8.066667
269.085304	368.898390	8.083333
269.729833	370.485304	8.100000
270.534647	372.320498	8.116667
271.339865	373.551977	8.133333
271.984797	374.538258	8.150000
272.629322	376.133145	8.166667
273.595432	376.704148	8.183333
273.758694	378.168355	8.200000
274.563704	379.711514	8.216667
275.208223	381.313649	8.233333
275.852741	382.917952	8.250000
276.497258	384.524425	8.266667
277.141774	386.133066	8.283333
277.786082	388.050398	8.300000
278.430594	389.663735	8.316667
279.235593	391.222492	8.333333
280.040796	392.475838	8.350000
280.525023	393.844185	8.366667
281.330224	395.100573	8.383333
281.814242	396.780425	8.400000
282.458746	398.405715	8.416667
283.584919	399.553845	8.433333
283.587677	401.100453	8.450000
284.552738	403.237912	8.466667
285.358140	404.194714	8.483333
285.681661	405.943520	8.500000
286.647133	407.467768	8.516667
287.131348	408.852992	8.533333
287.775632	410.806163	8.550000
288.902006	411.656494	8.566667
289.065242	413.159854	8.583333
290.191404	414.324836	8.600000
290.515336	415.461835	8.616667
291.159613	417.425576	8.633333
291.964796	418.708715	8.650000
292.288095	420.790749	8.666667
293.414041	422.278457	8.683333
293.737968	423.422432	8.700000
294.382026	425.713258	8.716667
295.186781	427.636000	8.733333
295.991956	428.930376	8.750000
296.636643	430.282852	8.766667
296.960142	432.066204	8.783333
297.764678	434.315380	8.800000
298.730124	435.877562	8.816667
299.054043	437.033323	8.833333
299.858999	438.655694	8.850000
300.503466	440.336779	8.866667
300.987443	442.076556	8.883333
302.113584	443.273711	8.900000
302.437285	444.754953	8.916667
303.563210	446.274518	8.933333
304.047825	447.063380	8.950000
304.210821	448.925193	8.966667
305.336742	450.450255	8.983333
305.820710	452.203425	9.000000
306.625868	453.524883	9.016667
307.270537	454.904331	9.033333
307.593798	457.041332	9.050000
308.559009	458.955476	9.066667
309.042970	460.719475	9.083333
310.008177	462.639138	9.100000
310.492568	463.761608	9.116667
311.297501	465.418925	9.133333
312.102866	466.431005	9.150000
312.587254	467.556882	9.166667
312.749798	470.093506	9.183333
314.035971	471.914418	9.200000
314.359869	473.101268	9.216667
315.485551	474.983271	9.233333
315.970153	475.790762	9.250000
316.453882	477.902480	9.266667
317.258802	479.578009	9.283333
317.742746	481.368411	9.300000
318.547444	483.375444	9.316667
319.031385	485.170537	9.333333
319.836299	486.855155	9.350000
320.641432	488.213752	9.366667
321.285856	489.958697	9.383333
321.769791	491.762112	9.400000
322.735187	493.398826	9.416667
323.219561	494.547476	9.433333
323.863979	496.300408	9.450000
324.508396	498.055517	9.466667
325.313300	499.756543	9.483333
325.958157	500.854275	9.500000
326.602571	502.615205	9.516667
327.247205	504.046816	9.533333
327.730905	506.199823	9.550000
328.536024	507.578842	9.566667
329.341143	508.959395	9.583333
329.664797	510.510112	9.600000
330.469243	512.893207	9.616667
331.274134	514.612823	9.633333
331.918536	516.390817	9.650000
332.402449	518.227164	9.666667
333.207111	520.288050	9.683333
333.851508	522.072932	9.700000
334.656616	523.468411	9.716667
335.140523	525.313443	9.733333
335.945404	527.048365	9.750000
336.429308	528.897737	9.766667
337.233960	530.973891	9.783333
338.039062	532.378516	9.800000
338.683676	533.840782	9.816667
339.007087	535.754584	9.833333
339.811959	537.502262	9.850000
340.616829	539.252134	9.866667
341.261438	540.721383	9.883333
341.584616	542.982727	9.900000
342.389027	545.418539	9.916667
343.354379	547.121828	9.933333
343.838495	548.655007	9.950000
344.804072	550.021592	9.966667
345.127699	551.613835	9.983333
345.771613	554.119722	10.000000
346.576699	555.547829	10.016667
347.381784	556.977472	10.033333
348.026381	558.464647	10.050000
348.670977	559.953345	10.066667
349.315801	561.100612	10.083333
349.960395	562.592057	10.100000
350.604758	564.428575	10.116667
351.409837	565.867402	10.133333
351.733453	567.475632	10.150000
352.216862	570.063102	10.166667
353.181731	572.486594	10.183333
353.665599	574.390655	10.200000
354.470208	576.530920	10.216667
355.275047	578.327866	10.233333
355.758678	580.585460	10.250000
356.563514	582.387143	10.266667
357.208093	583.899538	10.283333
357.852439	585.761124	10.300000
358.817991	587.165128	10.316667
359.141593	588.794131	10.333333
359.946423	590.605690	10.350000
360.590997	592.126310	10.366667
361.074849	594.053575	10.383333
361.879440	596.221043	10.400000
362.523776	598.097191	10.416667
363.167876	600.325994	10.433333
363.972696	602.151061	10.450000
364.456540	604.089915	10.466667
365.261357	605.919362	10.483333
365.744963	608.214529	10.500000
366.710264	609.992949	10.516667
367.355062	611.179793	10.533333
367.838899	613.129168	10.550000
368.643946	614.615934	10.566667
369.288268	616.513562	10.583333
369.772101	618.469104	10.600000
370.416182	620.725447	10.616667
371.060262	622.984747	10.633333
371.864588	625.546557	10.650000
372.509140	627.100923	10.666667
373.153214	629.368693	10.683333
374.118976	630.459087	10.700000
374.603037	632.074015	10.716667
375.247585	633.634791	10.733333
375.570678	636.022793	10.750000
376.535718	638.191141	10.766667
377.340749	639.702056	10.783333
377.825044	640.967528	10.800000
378.790320	642.784129	10.816667
379.274854	643.693262	10.833333
379.597938	646.094770	10.850000
380.402482	648.332402	10.866667
381.206783	650.933051	10.883333
381.851077	652.872186	10.900000
382.495127	655.174318	10.916667
383.300147	656.701450	10.933333
383.944437	658.647149	10.950000
384.588725	660.595032	10.966667
385.233011	662.545101	10.983333
385.877297	664.497355	11.000000
386.521580	666.451795	11.016667
387.487080	667.934132	11.033333
388.131848	669.165528	11.050000
388.616128	670.453410	11.066667
389.260651	672.050761	11.083333
389.904929	674.013985	11.100000
390.549205	675.979396	11.116667
390.872017	678.788225	11.133333
391.675797	682.165994	11.150000
392.801528	683.973782	11.166667
393.124823	686.060972	11.183333
394.250798	687.506338	11.200000
394.574828	688.496238	11.216667
395.218847	690.845072	11.233333
395.863111	692.829059	11.250000
396.346640	695.238793	11.266667
397.311380	697.853972	11.283333
398.277602	698.259178	11.300000
398.601381	699.624117	11.316667
399.567107	700.768557	11.333333
399.569663	702.615718	11.350000
400.373661	705.667587	11.366667
401.178401	707.612657	11.383333
401.822404	709.986126	11.400000
402.627140	711.935958	11.416667
403.110653	714.370255	11.433333
403.754650	716.752198	11.450000
404.559631	718.336923	11.466667
404.882651	720.834530	11.483333
406.008104	723.058714	11.500000
406.813582	723.902332	11.516667
407.297835	725.230665	11.533333
407.942073	727.252621	11.550000
408.426325	728.583393	11.566667
409.230546	731.303099	11.583333
409.875031	732.956566	11.600000
410.358777	735.042134	11.616667
411.323730	737.340027	11.633333
411.807725	739.054190	11.650000
412.612188	741.412413	11.666667
413.095675	743.883978	11.683333
413.900134	746.248154	11.700000
414.865837	747.427090	11.716667
415.189339	749.205529	11.733333
415.833307	751.631693	11.750000
416.477526	753.682118	11.766667
417.121236	756.492922	11.783333
417.925939	758.493332	11.800000
418.891890	759.301484	11.816667
419.375872	761.035410	11.833333
420.180826	762.660665	11.850000
420.343576	764.888436	11.866667
421.148018	767.279084	11.883333
421.791970	769.727785	11.900000
422.275178	772.616445	11.916667
423.079357	775.398864	11.933333
423.884046	777.419440	11.950000
424.688734	779.442225	11.966667
425.172704	781.193751	11.983333
425.656158	783.714440	12.000000
426.782072	785.249612	12.016667
427.105294	787.445818	12.033333
427.909459	790.249170	12.050000
428.714654	791.514883	12.066667
429.198616	793.277057	12.083333
430.164297	794.490051	12.100000
430.648516	795.868906	12.116667
431.452932	798.297991	12.133333
431.937408	799.292857	12.150000
432.420847	801.836071	12.166667
433.064771	804.327320	12.183333
433.547947	807.264371	12.200000
434.673066	809.985711	12.216667
435.317505	811.709129	12.233333
435.640447	814.322020	12.250000
436.605074	817.108010	12.266667
437.088760	819.282344	12.283333
437.732670	821.794398	12.300000
438.697813	823.808964	12.316667
439.181757	825.599114	12.333333
439.986411	827.672563	12.350000
440.630839	829.411260	12.366667
441.114517	831.598351	12.383333
441.918904	834.070531	12.400000
442.724078	835.367171	12.416667
443.368502	837.112612	12.433333
443.852438	838.914350	12.450000
444.496332	841.450283	12.466667
445.301239	843.146178	12.483333
445.463405	846.245945	12.500000
446.588753	848.626197	12.516667
447.232905	850.778251	12.533333
447.716568	852.987201	12.550000
448.520937	855.485024	12.566667
449.164818	858.040521	12.583333
449.808697	860.598992	12.600000
450.934566	862.201842	12.616667
451.097781	863.736668	12.633333
451.901875	866.645262	12.650000
452.546281	868.417307	12.666667
453.190419	870.589487	12.683333
454.155796	872.255670	12.700000
454.479493	873.742653	12.716667
455.444600	875.811140	12.733333
455.928514	877.645770	12.750000
456.572913	879.427336	12.766667
457.377530	881.556327	12.783333
457.540199	883.905795	12.800000
458.344006	887.243079	12.816667
458.987593	890.237919	12.833333
459.952689	892.323001	12.850000
460.596810	894.519357	12.866667
461.401687	896.260480	12.883333
461.724833	898.569884	12.900000
462.528896	901.525306	12.916667
462.851497	904.648055	12.933333
463.976798	907.097651	12.950000
464.942697	907.985028	12.966667
465.266106	909.900916	12.983333
466.070974	911.654975	13.000000
466.715355	913.465024	13.016667
467.520492	914.816195	13.033333
467.843898	916.737868	13.050000
468.326972	919.826558	13.066667
469.131289	922.403123	13.083333
469.936149	924.167663	13.100000
470.419490	926.858143	13.116667
471.223801	929.442843	13.133333
471.707138	932.139255	13.150000
472.672206	934.266486	13.166667
473.155813	936.558965	13.183333
473.639144	939.263441	13.200000
474.443171	942.272541	13.216667
475.408232	944.409745	13.233333
476.213631	945.370590	13.250000
477.019306	945.920984	13.266667
477.182208	947.922437	13.283333
477.665530	950.640135	13.300000
478.308785	954.130908	13.316667
479.273838	956.279972	13.333333
479.917917	958.539756	13.350000
480.561994	960.801740	13.366667
481.366557	963.011702	13.383333
481.850422	964.918282	13.400000
482.333454	968.069536	13.416667
483.137456	971.116267	13.433333
483.620761	973.859849	13.450000
484.746009	976.389732	13.466667
485.069381	978.361125	13.483333
485.873653	981.004489	13.500000
486.839247	982.346183	13.516667
487.162617	984.322451	13.533333
487.967443	986.137862	13.550000
488.611783	988.008941	13.566667
489.095075	990.771703	13.583333
490.059824	993.375153	13.600000
490.382906	995.779056	13.616667
491.187165	998.442160	13.633333
491.830936	1001.162324	13.650000
492.474423	1004.305617	13.666667
493.439725	1006.083021	13.683333
493.762799	1008.498914	13.700000
494.567049	1011.176152	13.716667
495.211092	1013.488749	13.733333
495.533880	1016.333542	13.750000
496.498326	1019.387835	13.766667
497.624390	1020.700568	13.783333
497.948022	1022.284165	13.800000
498.752545	1024.553468	13.816667
499.236945	1025.661979	13.833333
500.041465	1027.934622	13.850000
500.203756	1030.849502	13.866667
501.007419	1034.401236	13.883333
501.811649	1037.107211	13.900000
502.455391	1039.870082	13.916667
503.420103	1042.528181	13.933333
503.904212	1044.071543	13.950000
504.387749	1046.469223	13.966667
505.353029	1048.280472	13.983333
505.515304	1051.217291	14.000000
506.639921	1054.689906	14.016667
507.124025	1056.240871	14.033333
507.928526	1058.542261	14.050000
508.733313	1060.416951	14.066667
509.056353	1062.883798	14.083333
509.699500	1066.534351	14.100000
510.664769	1068.361434	14.116667
510.987805	1070.835548	14.133333
511.952494	1073.527687	14.150000
512.436012	1075.952792	14.166667
513.079437	1079.189665	14.183333
513.723148	1081.998260	14.200000
514.367147	1084.377319	14.216667
515.331827	1087.084093	14.233333
515.975823	1089.467943	14.250000
516.780594	1091.366724	14.266667
517.264392	1093.374383	14.283333
517.587412	1095.871427	14.300000
518.391306	1099.079037	14.316667
518.874226	1102.397802	14.333333
519.838308	1105.995309	14.350000
520.803849	1107.417131	14.366667
521.287931	1109.000755	14.383333
522.253470	1110.424611	14.400000
522.416286	1112.554119	14.416667
523.219873	1116.219600	14.433333
524.024924	1117.701526	14.450000
524.347636	1120.658741	14.466667
525.151803	1123.458305	14.483333
525.955968	1126.260882	14.500000
526.439748	1128.295143	14.516667
527.404396	1131.049380	14.533333
527.888469	1132.647518	14.550000
528.532141	1135.513477	14.566667
529.015622	1137.995306	14.583333
529.819186	1141.695425	14.600000
530.945197	1143.086160	14.616667
531.429560	1144.250134	14.633333
531.752845	1146.351632	14.650000
532.235727	1149.727852	14.666667
532.718012	1153.993605	14.683333
533.842830	1157.164960	14.700000
534.647269	1159.559427	14.716667
535.130734	1162.062852	14.733333
536.095954	1163.963967	14.750000
536.418931	1166.524784	14.766667
537.383552	1169.319589	14.783333
537.867310	1171.386299	14.800000
538.350769	1173.900356	14.816667
539.315683	1176.256693	14.833333
539.959924	1178.275321	14.850000
540.603864	1180.742341	14.866667
541.247803	1183.211571	14.883333
541.570469	1186.237158	14.900000
542.534775	1189.500804	14.916667
543.017923	1192.479507	14.933333
543.822039	1195.354735	14.950000
544.465969	1197.836820	14.966667
545.270384	1200.267915	14.983333
545.753825	1202.807619	15.000000
546.719024	1204.739582	15.016667
547.202161	1207.734092	15.033333
548.167659	1209.218743	15.050000
548.330426	1211.421490	15.066667
549.134530	1214.316544	15.083333
549.777843	1217.719942	15.100000
550.742731	1220.115704	15.116667
551.386949	1222.166999	15.133333
551.870681	1224.272937	15.150000
552.193319	1227.340604	15.166667
552.836014	1231.667444	15.183333
553.478704	1236.000331	15.200000
554.763942	1239.216436	15.216667
555.408456	1240.825991	15.233333
555.892180	1242.945379	15.250000
556.857358	1244.907273	15.266667
557.501565	1246.976749	15.283333
557.985897	1248.187382	15.300000
558.629795	1250.716304	15.316667
559.113207	1253.300410	15.333333
559.917589	1255.780785	15.350000
560.400690	1258.827400	15.366667
561.365861	1260.801178	15.383333
561.688474	1263.905857	15.400000
562.491926	1267.773419	15.416667
562.974712	1271.291809	15.433333
563.778774	1274.247975	15.450000
564.422349	1277.260032	15.466667
565.226717	1279.761115	15.483333
565.870288	1282.778756	15.500000
566.674961	1284.822825	15.516667
567.319458	1286.459209	15.533333
567.963644	1288.558920	15.550000
568.929110	1290.091928	15.566667
569.091839	1292.352867	15.583333
570.056683	1294.814560	15.600000
570.540379	1296.973263	15.616667
571.184250	1299.544620	15.633333
571.988604	1302.065429	15.650000
572.311501	1304.746726	15.666667
572.954120	1309.185224	15.683333
573.597047	1313.163961	15.700000
574.722052	1316.056977	15.716667
575.527022	1317.658815	15.733333
576.011020	1319.367047	15.750000
576.173109	1322.582705	15.766667
577.297794	1325.952878	15.783333
577.941961	1328.081005	15.800000
578.585814	1330.678917	15.816667
579.230293	1332.341912	15.833333
580.034942	1334.422069	15.850000
580.679105	1336.556409	15.866667
581.001668	1339.736454	15.883333
581.805369	1343.231666	15.900000
582.448898	1346.312916	15.916667
583.413710	1348.821214	15.933333
583.897697	1350.547223	15.950000
584.381051	1353.216908	15.966667
584.863456	1357.304340	15.983333
585.667144	1360.819187	16.000000
586.310345	1364.390461	16.016667
587.274830	1367.387318	16.033333
587.918977	1369.544791	16.050000
588.723291	1372.125315	16.066667
589.207269	1373.864394	16.083333
589.690293	1377.028159	16.100000
590.493966	1380.565148	16.116667
591.137789	1383.207366	16.133333
591.941777	1386.275288	16.150000
593.068008	1387.336540	16.166667
593.070206	1389.717837	16.183333
594.034994	1392.263086	16.200000
594.357520	1395.497219	16.216667
595.321985	1398.524902	16.233333
595.965797	1401.182305	16.250000
596.449444	1403.415945	16.266667
597.253098	1406.982497	16.283333
598.058353	1408.157506	16.300000
598.380548	1411.886393	16.316667
599.666936	1413.386281	16.333333
599.508316	1416.317673	16.350000
600.472122	1420.326783	16.366667
600.955116	1423.535504	16.383333
601.758754	1427.124185	16.400000
602.723521	1429.700790	16.416667
603.528447	1431.367576	16.433333
603.690464	1434.691427	16.450000
604.655226	1437.274394	16.466667
604.978048	1440.068316	16.483333
606.102968	1443.087230	16.500000
606.426434	1444.918011	16.516667
607.230382	1448.046020	16.533333
607.874167	1450.744477	16.550000
608.357141	1453.982337	16.566667
609.160757	1457.604527	16.583333
610.126158	1459.234783	16.600000
610.609452	1461.994584	16.616667
611.413714	1464.652449	16.633333
611.255066	1467.624891	16.650000
612.539147	1472.568164	16.666667
613.022107	1475.826555	16.683333
613.665222	1479.524360	16.700000
614.629960	1482.144297	16.716667
615.434211	1484.818484	16.733333
616.239445	1486.026479	16.750000
616.562568	1488.370236	16.766667
616.885033	1491.695606	16.783333
618.009592	1495.254797	16.800000
618.493524	1497.061857	16.816667
619.458252	1499.696433	16.833333
619.942183	1501.505986	16.850000
620.585609	1504.739965	16.866667
621.390507	1506.448463	16.883333
621.873776	1509.246574	16.900000
622.516867	1512.980811	16.916667
623.160617	1515.732204	16.933333
623.804034	1518.979529	16.950000
624.768419	1522.126217	16.966667
625.252010	1524.442342	16.983333
625.734606	1528.244572	17.000000
626.699648	1530.409316	17.016667
627.022087	1533.773986	17.033333
627.986795	1536.438505	17.050000
628.469715	1539.756970	17.066667
629.434419	1542.426361	17.083333
630.239637	1543.658450	17.100000
630.402249	1546.092522	17.116667
631.206132	1549.316599	17.133333
631.849862	1552.097281	17.150000
632.332438	1555.928897	17.166667
633.297134	1558.611407	17.183333
633.619890	1561.502807	17.200000
634.423094	1565.740715	17.216667
635.226965	1568.982942	17.233333
636.031504	1571.226945	17.250000
636.836378	1572.971679	17.266667
637.319947	1575.321722	17.283333
637.642358	1578.727846	17.300000
638.606705	1581.930656	17.316667
639.089933	1584.788836	17.333333
640.053940	1588.500089	17.350000
640.537839	1590.357207	17.366667
641.342031	1593.118989	17.383333
641.986076	1595.430777	17.400000
642.308812	1598.351173	17.416667
643.112325	1602.128298	17.433333
643.595204	1605.507288	17.450000
644.398373	1609.797287	17.466667
645.362700	1613.028805	17.483333
646.006736	1615.353603	17.500000
646.811594	1617.122013	17.516667
647.295483	1618.994269	17.533333
647.456703	1623.505980	17.550000
648.581507	1626.698748	17.566667
649.064371	1630.100064	17.583333
650.028687	1633.350317	17.600000
650.672713	1635.688474	17.616667
651.156255	1638.079519	17.633333
651.799255	1641.949444	17.650000
652.442936	1644.803157	17.666667
653.246416	1648.628668	17.683333
654.050920	1650.925479	17.700000
654.373628	1653.888786	17.716667
655.177444	1657.212071	17.733333
655.820775	1660.589631	17.750000
656.624587	1663.918985	17.766667
657.268600	1666.277011	17.783333
657.912612	1668.636598	17.800000
658.395451	1672.075722	17.816667
659.038084	1676.494529	17.833333
659.681058	1680.403773	17.850000
660.645343	1683.699736	17.866667
661.449831	1686.019357	17.883333
661.933351	1688.442791	17.900000
662.737492	1691.281402	17.916667
663.060179	1694.275538	17.933333
664.024455	1697.584172	17.950000
664.347139	1700.583076	17.966667
665.311412	1703.897372	17.983333
665.954714	1707.316810	18.000000
666.599056	1709.184654	18.016667
667.403881	1711.002492	18.033333
667.887389	1713.442014	18.050000
668.530686	1716.870134	18.066667
669.175024	1718.743010	18.083333
669.817621	1723.215520	18.100000
670.460911	1726.652266	18.116667
670.943715	1730.142965	18.133333
671.907621	1734.005053	18.150000
672.551254	1736.929691	18.166667
673.355720	1739.283761	18.183333
673.839217	1741.741192	18.200000
674.964649	1743.996652	18.216667
674.966691	1746.609812	18.233333
675.930585	1750.488840	18.250000
676.574561	1752.902547	18.266667
677.056999	1756.940533	18.283333
678.021589	1759.781031	18.300000
678.504374	1763.301016	18.316667
679.147640	1766.773208	18.333333
679.951389	1770.197650	18.350000
680.434168	1773.726646	18.366667
681.559939	1775.476335	18.383333
681.561615	1778.635552	18.400000
682.525134	1783.074094	18.416667
683.168743	1786.035912	18.433333
683.811997	1789.527979	18.450000
684.616086	1792.443952	18.466667
685.260044	1794.884098	18.483333
685.742808	1798.434617	18.500000
686.707377	1801.306689	18.516667
687.029654	1804.913432	18.533333
687.994219	1807.790389	18.550000
688.638527	1809.709629	18.566667
689.282122	1812.691567	18.583333
689.765232	1815.726313	18.600000
690.246915	1820.890236	18.616667
691.210759	1824.843798	18.633333
692.175671	1827.203118	18.650000
692.820329	1828.599274	18.666667
693.464272	1831.062189	18.683333
693.465564	1834.795669	18.700000
694.589525	1839.246794	18.716667
695.233463	1841.716223	18.733333
695.394875	1845.942984	18.750000
696.840512	1849.234770	18.766667
697.323963	1851.760863	18.783333
698.128380	1854.187677	18.800000
698.612547	1855.644528	18.816667
698.934792	1859.298019	18.833333
699.737767	1863.877389	18.850000
700.541099	1867.924154	18.866667
701.184305	1871.487201	18.883333
702.310402	1872.749103	18.900000
702.633720	1874.801651	18.916667
703.438128	1877.242934	18.933333
703.761083	1879.836711	18.950000
704.242714	1885.079120	18.966667
705.046032	1889.146719	18.983333
706.010192	1892.627465	19.000000
706.654109	1895.129954	19.016667
707.298024	1897.634010	19.033333
707.780729	1901.272873	19.050000
708.584763	1904.272368	19.066667
709.067464	1907.916827	19.083333
709.870403	1912.549628	19.100000
710.513948	1915.607502	19.116667
711.318338	1918.073870	19.133333
712.123092	1919.997976	19.150000
712.606878	1922.023364	19.166667
713.089570	1925.682945	19.183333
713.893226	1929.245333	19.200000
714.536031	1933.406219	19.216667
715.500898	1935.833540	19.233333
715.824195	1937.916717	19.250000
716.466629	1942.632475	19.266667
717.431492	1945.065495	19.283333
717.593570	1948.297328	19.300000
718.557330	1952.376485	19.316667
719.200855	1955.463470	19.333333
719.683160	1959.699517	19.350000
720.807763	1963.190724	19.366667
720.969465	1966.984657	19.383333
722.094433	1969.932274	19.400000
722.738686	1971.931915	19.416667
723.222087	1974.532701	19.433333
723.865601	1977.635732	19.450000
724.669597	1980.691127	19.466667
725.313477	1983.247330	19.483333
725.796504	1986.406578	19.500000
726.278789	1990.672185	19.516667
727.403375	1994.189833	19.533333
727.726284	1996.853771	19.550000
728.690383	2000.426514	19.566667
729.334626	2002.441020	19.583333
730.138981	2004.960586	19.600000
730.783223	2006.977386	19.616667
731.105383	2010.757976	19.633333
731.748508	2014.442069	19.650000
732.552114	2018.079472	19.666667
733.195979	2020.658188	19.683333
734.160810	2023.139084	19.700000
734.644563	2025.214399	19.716667
735.127196	2028.960369	19.733333
735.770311	2032.659681	19.750000
736.252193	2037.526753	19.766667
737.215896	2041.691779	19.783333
737.859377	2044.842981	19.800000
738.502858	2047.996424	19.816667
739.467677	2050.493793	19.833333
739.790564	2053.191051	19.850000
740.755006	2056.251378	19.866667
741.077890	2058.952036	19.883333
741.881095	2063.187117	19.900000
742.685050	2066.304144	19.916667
743.007178	2070.133282	19.933333
743.810376	2074.378774	19.950000
744.775562	2076.329863	19.966667
745.098438	2079.042236	19.983333
746.062491	2082.683904	20.000000
746.545470	2085.913718	20.016667
747.188931	2089.096331	20.033333
747.993251	2091.667880	20.050000
748.476604	2094.339811	20.066667
749.280166	2098.043616	20.083333
749.923621	2101.234848	20.100000
750.406212	2105.043036	20.116667
751.370251	2108.706224	20.133333
751.853218	2111.954249	20.150000
752.496287	2115.721760	20.166667
753.300217	2118.876012	20.183333
753.621936	2123.315152	20.200000
754.746447	2126.943975	20.216667
755.069304	2129.685643	20.233333
756.033710	2132.800426	20.250000
756.838775	2134.260230	20.266667
757.482594	2136.907833	20.283333
757.805446	2139.655414	20.300000
758.448882	2142.875826	20.316667
759.091934	2146.668592	20.333333
759.734984	2150.464392	20.350000
760.377649	2154.834243	20.366667
761.341660	2158.538289	20.383333
761.824604	2161.820886	20.400000
762.306780	2166.250222	20.416667
763.270401	2170.536245	20.433333
763.914206	2173.204784	20.450000
764.395991	2178.218093	20.466667
765.359605	2182.515096	20.483333
765.842922	2185.239522	20.500000
766.808072	2187.243772	20.516667
767.291774	2189.396060	20.533333
767.935571	2192.075587	20.550000
768.578983	2195.332272	20.566667
769.223164	2197.439365	20.583333
769.705318	2201.901320	20.600000
770.508434	2206.269339	20.616667
770.990969	2210.161866	20.633333
771.954951	2213.910729	20.650000
772.437869	2217.231242	20.666667
773.401459	2221.564330	20.683333
773.724279	2224.360031	20.700000
774.527382	2228.748444	20.716667
775.491741	2231.932537	20.733333
775.975817	2233.525447	20.750000
776.457949	2238.019962	20.766667
777.261822	2241.259284	20.783333
777.583856	2245.228275	20.800000
778.708301	2248.956529	20.816667
779.512948	2251.039635	20.833333
780.157112	2253.172507	20.850000
780.640793	2255.355116	20.866667
781.123693	2258.703965	20.883333
781.765901	2263.755740	20.900000
782.570153	2266.429244	20.916667
783.051874	2271.537463	20.933333
783.694857	2275.432882	20.950000
784.497929	2279.867676	20.966667
785.463049	2281.916460	20.983333
786.268078	2283.429448	21.000000
786.591267	2285.674438	21.016667
787.235028	2288.409202	21.033333
787.396162	2293.050305	21.050000
788.359312	2298.039527	21.066667
789.163157	2301.319965	21.083333
789.644855	2306.463141	21.100000
791.090626	2309.555269	21.116667
791.254113	2310.683471	21.133333
791.897470	2314.021090	21.150000
792.379948	2317.998573	21.166667
792.861239	2323.748172	21.183333
793.985642	2327.539297	21.200000
794.629783	2329.707064	21.216667
795.272735	2333.648276	21.233333
796.238235	2335.130967	21.250000
796.561012	2337.990417	21.266667
797.365632	2340.114671	21.283333
797.848493	2343.520546	21.300000
798.652318	2346.831988	21.316667
799.135573	2349.649633	21.333333
799.617635	2354.248034	21.350000
800.580744	2359.299189	21.366667
801.063597	2362.717701	21.383333
801.545253	2367.921998	21.400000
802.830115	2371.699931	21.416667
802.991998	2375.223055	21.433333
803.955492	2379.699035	21.450000
804.599617	2381.890355	21.466667
805.081660	2386.516883	21.483333
806.045947	2389.808794	21.500000
806.690469	2391.407476	21.516667
807.172507	2396.042448	21.533333
808.137592	2398.144900	21.550000
808.460346	2401.039011	21.566667
809.585911	2403.095716	21.583333
809.748181	2406.040727	21.600000
810.390692	2410.640541	21.616667
811.194486	2413.996907	21.633333
811.676511	2418.651704	21.650000
812.479497	2423.214405	21.666667
812.961113	2428.478176	21.683333
813.764094	2433.049311	21.700000
814.728360	2436.372392	21.716667
815.372065	2439.191331	21.733333
816.015364	2442.614485	21.750000
816.659470	2444.833952	21.766667
817.302363	2448.864187	21.783333
818.107354	2450.435006	21.800000
818.268393	2455.217245	21.816667
819.392322	2459.716207	21.833333
820.036423	2461.943294	21.850000
820.519636	2464.824259	21.866667
821.323406	2468.216531	21.883333
821.645729	2471.754491	21.900000
822.608759	2476.922210	21.916667
823.091560	2480.417940	21.933333
823.734028	2485.082376	21.950000
824.697865	2489.047680	21.966667
825.019771	2493.206949	21.983333
826.144493	2496.522289	22.000000
826.628101	2498.813298	22.016667
827.271782	2501.666559	22.033333
828.075945	2504.473739	22.050000
828.559550	2506.768293	22.066667
829.041521	2511.503334	22.083333
830.006162	2514.268282	22.100000
830.649019	2518.351413	22.116667
831.614066	2520.509217	22.133333
831.615403	2524.176152	22.150000
832.417917	2529.442770	22.166667
833.060767	2533.537226	22.183333
833.542312	2538.907835	22.200000
834.505710	2543.527526	22.216667
835.470750	2545.696413	22.233333
835.953932	2548.622678	22.250000
836.597184	2552.117268	22.266667
837.240846	2554.999517	22.283333
838.044577	2558.450818	22.300000
838.527342	2561.999250	22.316667
839.170588	2565.502503	22.333333
839.973902	2569.576687	22.350000
840.778039	2572.421025	22.366667
841.260799	2575.978442	22.383333
841.904452	2578.873633	22.400000
842.225900	2583.717490	22.416667
843.028376	2589.041371	22.433333
843.510300	2593.846244	22.450000
844.633733	2599.085072	22.466667
845.438275	2601.325822	22.483333
845.921022	2604.901506	22.500000
846.725147	2607.764870	22.516667
847.207891	2611.344677	22.533333
847.851116	2614.879513	22.550000
848.654405	2618.990616	22.566667
849.298043	2621.908791	22.583333
850.101744	2625.403264	22.600000
850.746214	2627.080636	22.616667
850.907570	2631.389572	22.633333
851.710016	2636.758992	22.650000
852.513293	2640.886367	22.666667
853.477886	2643.722050	22.683333
854.121934	2646.029428	22.700000
854.283699	2649.727696	22.716667
855.085714	2655.739536	22.733333
855.728501	2659.928004	22.750000
856.852730	2663.978545	22.766667
857.818573	2664.948470	22.783333
858.303811	2664.807506	22.800000
858.465988	2667.891318	22.816667
858.947867	2672.762823	22.833333
859.589385	2678.845993	22.850000
860.392221	2683.632516	22.866667
861.034573	2688.469934	22.883333
861.998306	2692.588746	22.900000
862.642339	2694.916977	22.916667
863.446010	2698.458106	22.933333
863.929138	2701.465438	22.950000
864.572325	2705.057570	22.966667
865.054606	2709.329255	22.983333
865.857847	2713.510388	23.000000
866.500606	2717.741380	23.016667
867.464748	2721.250155	23.033333
868.269678	2722.911925	23.050000
868.593163	2724.714517	23.066667
869.236340	2728.321396	23.083333
869.558128	2732.656826	23.100000
870.199604	2738.802129	23.116667
871.323369	2743.545496	23.133333
871.645150	2747.891691	23.150000
872.930667	2750.691529	23.166667
873.415053	2751.821262	23.183333
873.576349	2756.220193	23.200000
874.217809	2762.389720	23.216667
874.859691	2767.928931	23.233333
875.983439	2772.696577	23.250000
876.948839	2774.328463	23.266667
877.593276	2776.054020	23.283333
878.237713	2777.780174	23.300000
878.560332	2780.875426	23.316667
879.203057	2785.155584	23.333333
879.846209	2788.800171	23.350000
880.488502	2793.725073	23.366667
881.291702	2797.967974	23.383333
881.774796	2801.027036	23.400000
882.739332	2803.948450	23.416667
883.061513	2807.697533	23.433333
883.381975	2814.012719	23.450000
884.665749	2819.414252	23.466667
885.148835	2822.484263	23.483333
885.790680	2828.079050	23.500000
886.755206	2831.014548	23.516667
887.238288	2834.090524	23.533333
888.042331	2837.075533	23.550000
888.524980	2840.798427	23.566667
889.168108	2844.477322	23.583333
889.971716	2848.112262	23.600000
890.454360	2851.841907	23.616667
891.578927	2855.389033	23.633333
891.901952	2857.878236	23.650000
892.383727	2862.905778	23.666667
893.186894	2867.198523	23.683333
893.668664	2872.233488	23.700000
894.792788	2876.440618	23.716667
895.437637	2877.551046	23.733333
895.919835	2881.946596	23.750000
896.562946	2885.650816	23.766667
896.884225	2890.746771	23.783333
897.846990	2896.311807	23.800000
898.811492	2899.283018	23.816667
899.134070	2902.439839	23.833333
900.259051	2905.368308	23.850000
900.743415	2906.530968	23.866667
901.386516	2910.250354	23.883333
901.708655	2914.063890	23.900000
902.350443	2919.742411	23.916667
902.831748	2925.471836	23.933333
903.954971	2931.022735	23.950000
904.598500	2934.103698	23.966667
905.563427	2936.441240	23.983333
905.886868	2938.309704	24.000000
906.689999	2942.656386	24.016667
906.851205	2947.189383	24.033333
907.653016	2953.506725	24.050000
908.777979	2956.461785	24.066667
909.100538	2959.647275	24.083333
910.225938	2961.949775	24.100000
910.870335	2963.734538	24.116667
910.871491	2967.671597	24.133333
911.834648	2972.650166	24.150000
912.316802	2977.112521	24.166667
913.118592	2983.459957	24.183333
913.761221	2987.884045	24.200000
914.563887	2992.924350	24.216667
915.528798	2995.286405	24.233333
915.690863	2998.536815	24.250000
916.654004	3003.540127	24.266667
917.457989	3006.612317	24.283333
917.780973	3009.162324	24.300000
918.744994	3012.852616	24.316667
919.067534	3016.066185	24.333333
919.870185	3021.129214	24.350000
920.835087	3023.503048	24.366667
921.156293	3028.708569	24.383333
921.960269	3031.793567	24.400000
922.442839	3035.634002	24.416667
923.406404	3040.003805	24.433333
923.728491	3043.894529	24.450000
924.370646	3049.025092	24.466667
925.173280	3054.114281	24.483333
925.976356	3058.542288	24.500000
926.458024	3063.729666	24.516667
927.583395	3066.075657	24.533333
928.067290	3067.937791	24.550000
928.871253	3071.042645	24.566667
929.355148	3072.906336	24.583333
929.515847	3078.195811	24.600000
930.800353	3082.504963	24.616667
931.122870	3085.752865	24.633333
931.765003	3090.916557	24.650000
932.568062	3095.370281	24.666667
933.211087	3099.203136	24.683333
933.853662	3103.707770	24.700000
934.335306	3108.930592	24.716667
934.976978	3114.782790	24.733333
935.619097	3119.968920	24.750000
936.581723	3125.740495	24.766667
937.546147	3128.829022	24.783333
938.030030	3130.709951	24.800000
938.833971	3133.846132	24.816667
939.317853	3135.728621	24.833333
939.799931	3140.303342	24.850000
940.763899	3144.072736	24.866667
941.086396	3147.350576	24.883333
941.728497	3152.562376	24.900000
942.852940	3156.294137	24.916667
943.336365	3158.858154	24.933333
943.817980	3164.123923	24.950000
944.460526	3168.673003	24.966667
944.941683	3174.622440	24.983333
946.065663	3179.044003	25.000000
946.709562	3181.572040	25.016667
947.513941	3184.056307	25.033333
947.997359	3186.631234	25.050000
948.319388	3190.607492	25.066667
949.282881	3195.085118	25.083333
949.925867	3198.976729	25.100000
950.407461	3204.273443	25.116667
951.532794	3206.677347	25.133333
951.855270	3209.985515	25.150000
952.658730	3213.841175	25.166667
953.140773	3218.468916	25.183333
953.622813	3223.099691	25.200000
954.425355	3228.325595	25.216667
955.067414	3233.600135	25.233333
956.030887	3238.107169	25.250000
956.996645	3239.204422	25.266667
957.319569	3241.845513	25.283333
958.123016	3245.719918	25.300000
958.284543	3249.774770	25.316667
959.087071	3255.021415	25.333333
959.890054	3259.587730	25.350000
960.533015	3263.516898	25.366667
961.175974	3267.448344	25.383333
961.979870	3270.652211	25.400000
962.461428	3276.003906	25.416667
963.586281	3279.123113	25.433333
963.426835	3283.285691	25.450000
964.710785	3288.424937	25.466667
965.032775	3292.459531	25.483333
965.835281	3297.738984	25.500000
966.477765	3302.378433	25.516667
967.281189	3306.287940	25.533333
967.924132	3310.244039	25.550000
968.728014	3313.468750	25.566667
969.371878	3316.049691	25.583333
970.176683	3317.897584	25.600000
970.338182	3321.993314	25.616667
970.979268	3328.721231	25.633333
971.622202	3332.690249	25.650000
972.423760	3339.383944	25.666667
973.387649	3343.270724	25.683333
973.870097	3347.292231	25.700000
974.673968	3350.534920	25.716667
975.316893	3354.516491	25.733333
975.800267	3357.157442	25.750000
976.602740	3362.486470	25.766667
977.085181	3366.518926	25.783333
977.727170	3371.899028	25.800000
978.691046	3375.804703	25.816667
979.334894	3378.409791	25.833333
979.978274	3381.711600	25.850000
980.781667	3385.667093	25.866667
980.943608	3389.104283	25.883333
981.906543	3394.413659	25.900000
982.549919	3397.723115	25.916667
983.030945	3403.868510	25.933333
983.994809	3407.792715	25.950000
984.315818	3413.291746	25.966667
985.439689	3417.876488	25.983333
986.083526	3420.497775	26.000000
986.566414	3423.863465	26.016667
987.209311	3427.886856	26.033333
987.851738	3432.612875	26.050000
988.493693	3438.042809	26.066667
989.297064	3442.030422	26.083333
989.779006	3446.809410	26.100000
990.743323	3450.056291	26.116667
991.065252	3454.181873	26.133333
992.029567	3457.432333	26.150000
992.512444	3460.815406	26.166667
993.154385	3466.266505	26.183333
993.957745	3470.270228	26.200000
994.118244	3475.859136	26.216667
995.079719	3483.348734	26.233333
996.204977	3485.864288	26.250000
996.526892	3490.009712	26.266667
997.491669	3492.571471	26.283333
997.492151	3497.513911	26.300000
998.454085	3504.318787	26.316667
999.096952	3508.387357	26.333333
1000.061250	3511.663738	26.350000
1000.864593	3515.693118	26.366667
1001.348875	3516.978872	26.383333
1001.669830	3522.558549	26.400000
1002.794127	3526.507300	26.416667
1003.116503	3529.965972	26.433333
1004.079843	3534.672018	26.450000
1004.563171	3537.381177	26.466667
1005.366504	3541.425177	26.483333
1006.170789	3544.050295	26.500000
1006.331728	3548.982261	26.516667
1006.973148	3555.210304	26.533333
1007.775521	3560.688122	26.550000
1008.417412	3566.213199	26.566667
1009.542170	3569.474017	26.583333
1009.864533	3572.952440	26.600000
1010.668331	3576.302907	26.616667
1011.472607	3578.941301	26.633333
1011.794010	3583.852237	26.650000
1012.596847	3588.636827	26.666667
1013.078725	3593.510734	26.683333
1013.881078	3599.016955	26.700000
1015.006306	3601.577803	26.716667
1014.846742	3605.916185	26.733333
1015.970048	3611.345465	26.750000
1016.613835	3614.040153	26.766667
1017.256661	3618.170134	26.783333
1017.899967	3621.584879	26.800000
1018.060392	3627.283776	26.816667
1019.344165	3632.686008	26.833333
1019.665545	3637.630961	26.850000
1020.628356	3643.126710	26.866667
1021.271654	3646.552915	26.883333
1021.753989	3650.743628	26.900000
1022.718241	3654.087656	26.916667
1023.201540	3656.841176	26.933333
1023.842901	3663.158057	26.950000
1024.485709	3667.315061	26.966667
1024.967069	3672.961078	26.983333
1025.930346	3677.760325	27.000000
1026.733628	3681.882592	27.016667
1027.376429	3686.049891	27.033333
1028.342124	3687.240214	27.050000
1028.665420	3689.325143	27.066667
1028.986291	3695.029994	27.083333
1029.788595	3700.610811	27.100000
1030.270911	3704.831058	27.116667
1031.233203	3711.101745	27.133333
1031.715028	3716.053482	27.150000
1032.839252	3720.111740	27.166667
1033.483012	3722.846946	27.183333
1033.805815	3725.668288	27.200000
1034.447626	3731.313980	27.216667
1035.089921	3736.235997	27.233333
1035.731727	3741.889214	27.250000
1036.695951	3745.275892	27.266667
1037.017283	3750.291672	27.283333
1038.141494	3754.369062	27.300000
1038.785735	3756.387447	27.316667
1039.108041	3759.950645	27.333333
1039.749835	3765.621085	27.350000
1040.391626	3771.295534	27.366667
1041.354861	3776.158132	27.383333
1041.836659	3781.150842	27.400000
1042.639902	3785.330017	27.416667
1043.443635	3788.779205	27.433333
1044.087869	3790.807234	27.450000
1044.570643	3794.343576	27.466667
1045.373881	3798.530137	27.483333
1045.695191	3803.579238	27.500000
1046.497934	3808.504753	27.516667
1047.140197	3813.475578	27.533333
1047.621487	3819.226548	27.550000
1048.746165	3822.606954	27.566667
1049.067958	3826.935261	27.583333
1049.870691	3831.875492	27.600000
1050.995859	3834.525521	27.616667
1050.997185	3838.207779	27.633333
1051.960885	3842.376124	27.650000
1052.442655	3847.410321	27.666667
1053.244885	3853.101407	27.683333
1053.887129	3858.100183	27.700000
1054.529866	3862.363326	27.716667
1055.333079	3866.586806	27.733333
1055.977299	3868.636499	27.750000
1056.459059	3873.687014	27.766667
1057.261772	3878.656771	27.783333
1057.743527	3883.713431	27.800000
1058.867689	3887.864732	27.816667
1059.029477	3891.528265	27.833333
1059.992661	3896.467350	27.850000
1060.635881	3900.009161	27.866667
1061.278603	3904.294900	27.883333
1061.920826	3909.325679	27.900000
1062.724520	3912.831498	27.916667
1063.206759	3917.165881	27.933333
1063.849474	3921.460795	27.950000
1064.331212	3926.543937	27.966667
1065.133404	3932.291482	27.983333
1066.097569	3935.765970	28.000000
1066.902254	3937.793147	28.016667
1067.224506	3941.436902	28.033333
1067.545257	3947.320083	28.050000
1068.185461	3955.363877	28.066667
1069.148118	3961.090153	28.083333
1069.950794	3966.114403	28.100000
1070.914949	3969.604228	28.116667
1071.398672	3971.723836	28.133333
1071.719911	3976.879365	28.150000
1072.522080	3982.662522	28.166667
1073.164772	3986.992195	28.183333
1073.967438	3992.032570	28.200000
1074.610127	3996.367223	28.216667
1075.092336	4000.745568	28.233333
1076.055474	4005.753056	28.250000
1076.377203	4010.177699	28.266667
1077.340337	4015.191029	28.283333
1077.983018	4019.537922	28.300000
1078.465220	4023.928411	28.316667
1079.429357	4027.444384	28.333333
1079.590600	4031.921612	28.350000
1080.392238	4038.497222	28.366667
1081.355865	4042.773881	28.383333
1081.838564	4046.421984	28.400000
1082.802189	4050.702952	28.416667
1083.285392	4053.599422	28.433333
1083.767581	4058.007792	28.450000
1084.731202	4062.295008	28.466667
1084.892433	4066.790194	28.483333
1085.854530	4073.352160	28.500000
1086.336713	4077.770751	28.516667
1086.978356	4083.665723	28.533333
1087.940444	4090.240838	28.550000
1088.744592	4093.069080	28.566667
1089.227276	4096.739133	28.583333
1090.031423	4099.569762	28.600000
1090.031146	4105.643842	28.616667
1091.153191	4112.955325	28.633333
1091.796346	4116.593012	28.650000
1092.919914	4121.631242	28.666667
1093.244152	4122.310364	28.683333
1093.886285	4127.474907	28.700000
1094.528926	4131.880784	28.716667
1095.171055	4137.051098	28.733333
1095.652194	4143.027945	28.750000
1096.614762	4148.886430	28.766667
1097.097430	4152.580648	28.783333
1098.061017	4156.918018	28.800000
1098.544706	4159.087593	28.816667
1098.864845	4165.884831	28.833333
1099.987880	4171.718524	28.850000
1100.309551	4176.228690	28.866667
1101.433094	4181.303698	28.883333
1102.238247	4182.632385	28.900000
1102.559914	4187.148283	28.916667
1103.684480	4190.696687	28.933333
1103.847209	4192.956448	28.950000
1104.488285	4199.698506	28.966667
1105.130901	4204.141963	28.983333
1105.450502	4211.741915	29.000000
1107.056492	4215.179673	29.016667
1106.896717	4219.833632	29.033333
1107.859249	4225.745515	29.050000
1108.502372	4229.432425	29.066667
1108.983984	4234.701913	29.083333
1109.785000	4242.206213	29.100000
1110.910582	4244.236639	29.116667
1111.232229	4248.783834	29.133333
1112.035822	4252.440379	29.150000
1112.196471	4257.804259	29.166667
1113.318945	4264.474782	29.183333
1113.801580	4268.218696	29.200000
1114.925603	4272.576600	29.216667
1115.409791	4274.002934	29.233333
1115.730908	4279.339269	29.250000
1116.693932	4284.517774	29.266667
1117.015565	4289.085355	29.283333
1117.495595	4296.716331	29.300000
1118.779565	4301.824855	29.316667
1118.940716	4306.441201	29.333333
1120.064205	4311.595790	29.350000
1120.708344	4313.765801	29.366667
1121.190444	4318.308020	29.383333
1121.670979	4325.185663	29.400000
1122.473508	4330.431684	29.416667
1123.275512	4336.459564	29.433333
1123.918603	4340.194077	29.450000
1124.722692	4343.110911	29.466667
1125.686734	4346.768466	29.483333
1125.688438	4349.887433	29.500000
1126.649864	4357.449589	29.516667
1127.293472	4360.412398	29.533333
1127.935510	4365.719482	29.550000
1128.578069	4370.248110	29.566667
1129.381626	4373.957329	29.583333
1129.863182	4379.312281	29.600000
1130.666737	4383.025405	29.616667
1130.987812	4388.425453	29.633333
1131.788740	4396.059872	29.650000
1132.431289	4400.603818	29.666667
1133.071734	4408.288046	29.683333
1134.197285	4410.364339	29.700000
1134.679879	4414.170146	29.716667
1135.323474	4417.152482	29.733333
1135.484059	4422.611941	29.750000
1136.606975	4428.622954	29.766667
1137.248985	4433.970152	29.783333
1137.891521	4438.533327	29.800000
1138.695059	4442.271810	29.816667
1139.499124	4445.224246	29.833333
1139.821231	4449.084303	29.850000
1140.784715	4453.576204	29.866667
1140.784281	4459.884967	29.883333
1141.745646	4467.539606	29.900000
1142.549175	4471.290445	29.916667
1143.030163	4477.492274	29.933333
1143.832101	4483.619319	29.950000
1144.796633	4486.546576	29.966667
1145.118199	4491.215006	29.983333
1145.599178	4497.429941	30.000000
1146.562114	4502.738626	30.016667
1147.365634	4506.504441	30.033333
1147.847669	4511.143411	30.050000
1148.489647	4516.538789	30.066667
1149.293163	4520.310470	30.083333
1149.774662	4525.750439	30.100000
1150.738119	4530.281350	30.116667
1151.381687	4533.303282	30.133333
1152.025255	4536.326275	30.150000
1152.507280	4540.980183	30.166667
1153.149247	4546.393052	30.183333
1153.630201	4552.644436	30.200000
1154.593116	4557.985793	30.216667
1155.396086	4562.572228	30.233333
1156.039647	4565.605129	30.250000
1156.521662	4570.273534	30.266667
1157.163617	4575.703377	30.283333
1157.805035	4581.934996	30.300000
1158.607997	4586.533451	30.316667
1159.251553	4589.574432	30.333333
1160.054512	4594.176815	30.350000
1160.375506	4599.698344	30.366667
1161.177926	4605.106267	30.383333
1161.980880	4609.716389	30.400000
1162.461807	4616.009256	30.416667
1163.264221	4621.426614	30.433333
1163.745680	4626.924705	30.450000
1164.708565	4632.309574	30.466667
1164.869607	4637.088242	30.483333
1165.671474	4643.321243	30.500000
1166.633814	4649.519643	30.516667
1167.276816	4653.386078	30.533333
1167.919279	4658.058873	30.550000
1168.723294	4661.085184	30.566667
1169.527309	4664.112584	30.583333
1170.171387	4666.374193	30.600000
1170.493433	4670.325068	30.616667
1170.974333	4676.657433	30.633333
1171.936659	4682.878128	30.650000
1172.419176	4686.797070	30.666667
1173.221021	4693.062993	30.683333
1173.864011	4696.947591	30.700000
1174.665852	4703.220189	30.716667
1175.309381	4706.300340	30.733333
1175.629790	4712.694406	30.750000
1176.592100	4718.938797	30.766667
1177.395559	4722.795663	30.783333
1178.037998	4727.502830	30.800000
1178.842541	4729.742209	30.816667
1179.165113	4732.907978	30.833333
1179.968024	4737.581878	30.850000
1180.450527	4741.523284	30.866667
1180.930852	4748.713706	30.883333
1182.054710	4753.318820	30.900000
1182.215712	4758.155801	30.916667
1183.016436	4766.094961	30.933333
1183.818246	4772.412659	30.950000
1184.300194	4777.182241	30.966667
1185.263021	4782.654283	30.983333
1185.583943	4788.281998	31.000000
1186.546219	4794.575906	31.016667
1187.510133	4798.426044	31.033333
1187.832690	4801.613940	31.050000
1188.635579	4806.321601	31.066667
1189.278538	4810.252789	31.083333
1189.759926	4815.857988	31.100000
1190.884309	4819.679094	31.116667
1191.206862	4822.873916	31.133333
1192.170219	4827.554195	31.150000
1192.653245	4830.713648	31.166667
1193.135174	4835.511648	31.183333
1193.937502	4841.055352	31.200000
1194.259501	4845.076601	31.216667
1194.899153	4853.943992	31.233333
1196.022976	4858.601700	31.250000
1196.343320	4865.092927	31.266667
1197.628164	4868.896943	31.283333
1197.789680	4872.967052	31.300000
1198.753572	4876.849969	31.316667
1198.759017	4874.384099	31.333333
1198.923837	4873.524505	31.350000
1199.415660	4863.553717	31.366667
1198.787998	4848.115077	31.383333
1198.320796	4832.660664	31.400000
1197.373248	4815.707059	31.416667
1196.262472	4802.900709	31.433333
1196.275014	4789.843800	31.450000
1195.488442	4772.106432	31.466667
1194.538650	4758.502297	31.483333
1193.909798	4744.839608	31.500000
1193.121001	4730.421911	31.516667
1192.651514	4718.377674	31.533333
1192.184729	4702.301689	31.550000
1191.234876	4688.789078	31.566667
1190.928536	4672.719841	31.583333
1189.980276	4656.829346	31.600000
1189.834379	4640.770162	31.616667
1188.887163	4623.322827	31.633333
1187.615214	4611.595735	31.650000
1187.145635	4599.688629	31.666667
1186.355095	4587.873104	31.683333
1185.723951	4577.631299	31.700000
1185.577972	4561.694073	31.716667
1184.307043	4548.445668	31.733333
1183.836881	4537.408557	31.750000
1182.886349	4524.910115	31.766667
1182.415638	4514.693385	31.783333
1181.786570	4501.351725	31.800000
1180.995421	4490.444837	31.816667
1180.847761	4477.017602	31.833333
1179.737231	4463.844202	31.850000
1179.107589	4451.360109	31.866667
1178.799418	4438.024132	31.883333
1177.688852	4424.903477	31.900000
1177.220181	4411.642450	31.916667
1176.430018	4399.263919	31.933333
1175.478842	4387.725551	31.950000
1175.330565	4375.218756	31.966667
1174.057893	4364.571557	31.983333
1173.586547	4355.301631	32.000000
1172.956813	4342.955505	32.016667
1172.324977	4333.746165	32.033333
1172.338175	4319.709015	32.050000
1171.229066	4304.415251	32.066667
1170.437769	4293.728403	32.083333
1169.647505	4281.501109	32.100000
1168.695715	4270.880506	32.116667
1168.384267	4262.435205	32.133333
1167.754452	4250.208237	32.150000
1167.285105	4237.956695	32.166667
1166.816780	4224.177265	32.183333
1165.866496	4211.309477	32.200000
1165.236637	4199.148360	32.216667
1164.124822	4187.893262	32.233333
1163.492885	4178.834477	32.250000
1163.022447	4168.209519	32.266667
1162.070056	4158.484830	32.283333
1161.759567	4148.608062	32.300000
1161.129654	4136.528803	32.316667
1160.338741	4125.269737	32.333333
1159.868774	4113.942988	32.350000
1158.917876	4101.990685	32.366667
1158.286392	4092.255376	32.383333
1157.655410	4081.770276	32.400000
1157.185407	4070.496951	32.416667
1156.555933	4057.761763	32.433333
1155.926448	4045.044300	32.450000
1155.136473	4032.385698	32.466667
1154.505951	4021.214188	32.483333
1153.392977	4011.689058	32.500000
1153.082383	4001.968294	32.516667
1152.129872	3992.423009	32.533333
1151.498310	3982.805637	32.550000
1150.866740	3973.198699	32.566667
1150.234660	3964.352761	32.583333
1149.764559	3953.224954	32.600000
1149.134473	3941.403650	32.616667
1148.503876	3930.345837	32.633333
1147.873769	3918.554992	32.650000
1147.083674	3906.075673	32.666667
1146.613025	3895.765369	32.683333
1145.339979	3885.675706	32.700000
1144.866824	3879.106564	32.716667
1144.557130	3868.043724	32.733333
1143.605017	3857.903675	32.750000
1143.295305	3846.867413	32.766667
1142.505141	3834.490782	32.783333
1141.232046	3824.474607	32.800000
1140.919832	3817.171758	32.816667
1140.127663	3807.788092	32.833333
1139.816921	3798.288678	32.850000
1139.347666	3785.898074	32.866667
1138.396965	3773.651622	32.883333
1137.766717	3762.072350	32.900000
1137.136458	3750.508781	32.916667
1136.344730	3740.467014	32.933333
1135.552504	3731.168516	32.950000
1134.921238	3721.107788	32.966667
1134.450931	3710.287258	32.983333
1133.820137	3699.522943	33.000000

1133.028855	3688.814972	33.016667
1132.237077	3678.847601	33.033333
1131.283353	3671.112848	33.050000
1130.810573	3663.983244	33.066667
1130.339246	3654.685572	33.083333
1129.708404	3643.993337	33.100000
1129.077552	3633.314918	33.116667
1128.607169	3622.607523	33.133333
1127.816786	3610.557617	33.150000
1127.187353	3597.762774	33.166667
1126.234540	3588.667932	33.183333
1125.441718	3580.258935	33.200000
1124.970808	3570.337922	33.216667
1124.338932	3561.188538	33.233333
1123.868487	3550.574899	33.250000
1123.078032	3538.631711	33.266667
1121.964217	3530.361741	33.283333
1121.491833	3522.641337	33.300000
1120.698964	3514.302224	33.316667
1120.548481	3505.087198	33.333333
1119.436071	3494.720331	33.350000
1118.964616	3485.614158	33.366667
1118.172671	3475.895828	33.383333
1117.540247	3467.563077	33.400000
1117.229724	3457.736879	33.416667
1116.438703	3446.639577	33.433333
1115.646726	3436.969589	33.450000
1115.176643	3425.814711	33.466667
1114.063690	3416.257847	33.483333
1113.913604	3406.451268	33.500000
1112.962055	3395.470515	33.516667
1112.168625	3387.968719	33.533333
1111.698026	3377.583990	33.550000
1110.745511	3368.044180	33.566667
1110.273022	3360.481996	33.583333
1109.480972	3350.920007	33.600000
1108.526098	3344.901750	33.616667
1108.535498	3336.533819	33.633333
1107.583881	3325.653942	33.650000
1107.274171	3314.613765	33.666667
1106.483478	3303.027298	33.683333
1105.209012	3295.056539	33.700000
1104.736010	3288.259361	33.716667
1104.264858	3278.700621	33.733333
1103.632292	3270.580100	33.750000
1103.001108	3260.397678	33.766667
1102.208973	3250.962634	33.783333
1101.737328	3242.139536	33.800000
1100.945178	3232.727783	33.816667
1100.313499	3223.283732	33.833333
1099.681812	3213.851713	33.850000
1098.729157	3204.520692	33.866667
1098.578435	3195.663567	33.883333
1097.466201	3185.033556	33.900000
1096.833567	3177.015753	33.916667
1096.362777	3166.916710	33.933333
1095.409169	3159.008145	33.950000
1095.098387	3149.569338	33.966667
1094.467091	3139.552610	33.983333
1093.353438	3131.040819	34.000000
1092.882152	3121.682723	34.016667
1092.249924	3113.058226	34.033333
1091.617689	3104.444119	34.050000
1090.985899	3095.165181	34.066667
1090.032238	3087.336982	34.083333
1089.720942	3078.664121	34.100000
1088.607690	3069.553799	34.116667
1088.134999	3062.291632	34.133333
1087.824133	3052.977602	34.150000
1086.710858	3043.901112	34.166667
1086.721833	3033.181565	34.183333
1085.608989	3023.462406	34.200000
1084.494346	3016.428387	34.216667
1084.342579	3009.130367	34.233333
1083.549779	3000.687835	34.250000
1083.077933	2992.165069	34.266667
1082.446936	2981.703632	34.283333
1081.654113	2973.294719	34.300000
1080.861728	2964.233170	34.316667
1079.907523	2957.216081	34.333333
1079.595678	2949.362829	34.350000
1079.125118	2938.920604	34.366667
1078.171780	2930.610176	34.383333
1077.699876	2922.173383	34.400000
1076.586485	2913.271250	34.416667
1076.273725	2906.783004	34.433333
1075.802682	2897.062044	34.450000
1075.010668	2887.446305	34.466667
1074.539606	2877.752798	34.483333
1073.425736	2869.564524	34.500000
1072.631507	2863.255409	34.516667
1072.319590	2855.509117	34.533333
1071.848061	2846.513438	34.550000
1070.895082	2837.667601	34.566667
1070.262620	2829.392201	34.583333
1069.630151	2821.127172	34.600000
1068.837629	2812.269867	34.616667
1068.204712	2804.674332	34.633333
1067.571788	2797.087652	34.650000
1066.939292	2788.863353	34.666667
1065.985395	2781.387506	34.683333
1065.995673	2771.708548	34.700000
1064.882144	2763.010894	34.716667
1064.089138	2754.875982	34.733333
1063.617087	2746.658827	34.750000
1062.823638	2739.186342	34.766667
1062.351573	2730.989069	34.783333
1061.558540	2722.894967	34.800000
1061.086462	2714.718360	34.816667
1060.293843	2706.006576	34.833333
1059.500788	2697.944490	34.850000
1058.868634	2689.209423	34.866667
1058.075139	2681.805003	34.883333
1057.442118	2674.362861	34.900000
1057.130480	2666.201640	34.916667
1056.016428	2658.284138	34.933333
1055.865257	2650.096813	34.950000
1054.751615	2641.568055	34.966667
1054.117717	2635.436767	34.983333
1053.485082	2627.419140	35.000000
1052.691115	2620.718766	35.016667
1052.379009	2613.255878	35.033333
1051.747197	2604.009914	35.050000
1050.954054	2596.079852	35.066667
1050.321806	2587.486386	35.083333
1049.689129	2579.530909	35.100000
1049.218184	2569.663277	35.116667
1048.587165	2559.234207	35.133333
1047.633919	2550.786316	35.150000
1046.840729	2542.925753	35.166667
1046.047116	2535.697247	35.183333
1045.413562	2529.051389	35.200000
1044.940901	2521.745421	35.216667
1044.147270	2514.542795	35.233333
1043.514116	2507.301758	35.250000
1042.881783	2498.833488	35.266667
1041.926825	2492.940936	35.283333
1041.453721	2486.295742	35.300000
1040.659235	2480.368844	35.316667
1040.507910	2472.412186	35.333333
1039.715474	2463.426700	35.350000
1038.922617	2455.068544	35.366667
1038.450306	2447.240064	35.383333
1037.657844	2438.293198	35.400000
1036.864145	2431.193264	35.416667
1036.231330	2423.444199	35.433333
1035.437210	2416.972397	35.450000
1034.804383	2409.242484	35.466667
1034.171548	2401.522916	35.483333
1033.377411	2395.076217	35.500000
1033.065934	2386.673579	35.516667
1032.433892	2377.772733	35.533333
1031.319178	2370.843826	35.550000
1030.846386	2363.732348	35.566667
1030.052220	2357.329020	35.583333
1029.418935	2350.282370	35.600000
1028.786047	2342.642470	35.616667
1028.634599	2334.868880	35.633333
1028.002904	2325.448383	35.650000
1027.050636	2315.540347	35.666667
1026.096352	2308.642036	35.683333
1025.302143	2302.302367	35.700000
1024.668012	2296.519255	35.716667
1024.034276	2290.145670	35.733333
1023.561017	2283.731300	35.750000
1023.249830	2274.895432	35.766667
1022.296706	2266.266301	35.783333
1021.341981	2260.024386	35.800000
1020.869096	2253.052216	35.816667
1019.753086	2248.058578	35.833333
1019.761241	2241.548199	35.850000
1018.968959	2232.333598	35.866667
1018.175085	2225.493494	35.883333
1017.542477	2217.435698	35.900000
1017.069556	2210.517745	35.916667
1016.276451	2202.530703	35.933333
1015.643427	2195.093705	35.950000
1014.689432	2187.764257	35.966667
1014.216093	2181.469569	35.983333
1013.904406	2173.380330	36.000000
1012.629425	2166.178632	36.016667
1012.156460	2159.326649	36.033333
1011.040388	2154.424958	36.050000
1011.048470	2148.023694	36.066667
1010.254912	2140.711886	36.083333
1009.943185	2132.683965	36.100000
1008.990294	2123.705200	36.116667
1008.035456	2117.633100	36.133333
1007.401966	2110.893041	36.150000
1006.768469	2104.161797	36.166667
1006.295064	2097.966584	36.183333
1005.823195	2089.476984	36.200000
1004.709001	2081.771633	36.216667
1004.556928	2074.931370	36.233333
1003.442719	2067.248414	36.250000
1002.648318	2061.195763	36.266667
1002.335744	2054.431591	36.283333
1001.059501	2049.112873	36.300000
1000.906635	2043.456100	36.316667
1000.273842	2035.674717	36.333333
999.319313	2029.141132	36.350000
999.167574	2021.802073	36.366667
997.892447	2014.818364	36.383333
997.257726	2009.913770	36.400000
996.623382	2004.448143	36.416667
996.310757	1997.759228	36.433333
995.678295	1989.484448	36.450000
995.206306	1981.173911	36.466667
994.412966	1973.538567	36.483333
993.619617	1965.915231	36.500000
992.665401	1958.914407	36.516667
992.190751	1954.577081	36.533333
991.718723	1946.324992	36.550000
990.763739	1940.470668	36.566667
990.452179	1932.192671	36.583333
989.497930	1925.241340	36.600000
988.704158	1918.250729	36.616667
987.909261	1912.937773	36.633333
987.274471	1908.136527	36.650000
986.961017	1902.685999	36.666667
986.167593	1895.174995	36.683333
985.533903	1888.732307	36.700000
984.900948	1881.193722	36.716667
983.945909	1875.421448	36.733333
983.633167	1868.906120	36.750000
982.517635	1863.199366	36.766667
982.525849	1856.600920	36.783333
981.732743	1848.614905	36.800000
981.099745	1841.140346	36.816667
980.305889	1834.274723	36.833333
979.672875	1826.823221	36.850000
978.718155	1820.574564	36.866667
978.405729	1813.589622	36.883333
976.969182	1808.053792	36.900000
976.816134	1802.667467	36.916667
976.021511	1796.945244	36.933333
975.547488	1791.672071	36.950000
974.431526	1786.605977	36.966667
973.796286	1782.477191	36.983333
973.482735	1777.170912	37.000000
972.848935	1770.891861	37.016667
971.893801	1765.261237	37.033333
972.062770	1758.209054	37.050000
970.627254	1751.133401	37.066667
970.474882	1744.739769	37.083333
969.520443	1738.071104	37.100000
968.886248	1732.382168	37.116667
968.574448	1724.462003	37.133333
967.620704	1716.757510	37.150000
966.826364	1710.613961	37.166667
966.352986	1704.378088	37.183333
965.398150	1698.302775	37.200000
964.603081	1693.246806	37.216667
963.808008	1688.197009	37.233333
963.493673	1684.060284	37.250000
962.860140	1677.384408	37.266667
962.226599	1670.718826	37.283333
961.593052	1664.063539	37.300000
960.798308	1658.522196	37.316667
960.164396	1652.411700	37.333333
959.530126	1646.835069	37.350000
958.735718	1640.792263	37.366667
958.422757	1634.605688	37.383333
957.789872	1626.961030	37.400000
956.995795	1620.424799	37.416667
956.684211	1612.182731	37.433333
955.247136	1607.434346	37.450000
954.934143	1601.295807	37.466667
954.139691	1595.319038	37.483333
953.505370	1589.818310	37.500000
952.871391	1583.807376	37.516667
952.237752	1577.288406	37.533333
951.282101	1572.430249	37.550000
950.648105	1566.444982	37.566667
950.013068	1562.012959	37.583333
949.539545	1555.991890	37.600000
948.584220	1550.646686	37.616667
948.270484	1545.616916	37.633333
947.797632	1538.595640	37.650000
947.003460	1532.200062	37.666667
946.530935	1524.691283	37.683333
945.415438	1518.930217	37.700000
944.620564	1513.584313	37.716667
944.306797	1508.600054	37.733333
943.512253	1502.760578	37.750000
943.199836	1495.761837	37.766667
942.245473	1488.980745	37.783333
941.129263	1484.284208	37.800000
940.654311	1480.397571	37.816667
940.179694	1476.010459	37.833333
939.706761	1469.109961	37.850000
938.912514	1462.827158	37.866667
938.117924	1457.056661	37.883333
937.643625	1452.194433	37.900000
936.688875	1445.991069	37.916667
936.054082	1441.194523	37.933333
935.740589	1435.801348	37.950000
934.785487	1430.123631	37.966667
934.633469	1423.200430	37.983333
933.840170	1415.502233	38.000000
932.885380	1409.359256	38.016667
932.251220	1403.618311	38.033333
931.134937	1399.030945	38.050000
930.499442	1395.282581	38.066667
930.185576	1390.447056	38.083333
929.551726	1384.242550	38.100000
928.917540	1378.540405	38.116667
928.444162	1372.303717	38.133333
927.489324	1366.233153	38.150000
926.373008	1361.694516	38.166667
925.898300	1357.443451	38.183333
925.423588	1353.197317	38.200000
924.949528	1347.979597	38.216667
924.154819	1342.385837	38.233333
923.841886	1336.157893	38.250000
922.726846	1329.714822	38.266667
922.092278	1324.582654	38.283333
921.297545	1319.025533	38.300000
920.822804	1314.824337	38.316667
920.188545	1309.230409	38.333333
919.554281	1303.645241	38.350000
918.920011	1298.068834	38.366667
918.285412	1292.982246	38.383333
917.008869	1288.112194	38.400000
916.855073	1283.843146	38.416667
916.381588	1277.766728	38.433333
915.587126	1271.805236	38.450000
915.114586	1264.316950	38.466667
914.159304	1258.907396	38.483333
913.685153	1253.825335	38.500000
912.729860	1248.432680	38.516667
911.934410	1243.945560	38.533333
911.459926	1239.359602	38.550000
910.986072	1233.832955	38.566667
910.512846	1227.369940	38.583333
909.558157	1221.076447	38.600000
908.280911	1217.254796	38.616667
908.287543	1213.017452	38.633333
907.331891	1208.160737	38.650000
907.018175	1203.100917	38.666667
906.544910	1196.695624	38.683333
905.268897	1191.033175	38.700000
904.794053	1186.985348	38.716667
904.159345	1182.062264	38.733333
903.203662	1177.252038	38.750000
903.050711	1171.720391	38.766667
902.095018	1166.925625	38.783333
901.781571	1161.463417	38.800000
900.665691	1156.274031	38.816667
900.191128	1151.806585	38.833333
899.396209	1146.527673	38.850000
898.761460	1141.665541	38.866667
898.287500	1136.297639	38.883333
897.653664	1130.072558	38.900000
896.697621	1125.799777	38.916667
896.223030	1121.374241	38.933333
894.945700	1117.677298	38.950000
894.791766	1113.614380	38.966667
893.996498	1108.855512	38.983333
893.521891	1104.453710	39.000000
892.887709	1098.745735	39.016667
892.092426	1094.009674	39.033333
891.618109	1089.174794	39.050000
890.662634	1084.053631	39.066667
890.027214	1080.191979	39.083333
889.392095	1075.883431	39.100000
888.757576	1070.678671	39.116667
888.443720	1065.826645	39.133333
887.809792	1059.739294	39.150000
886.854284	1054.667940	39.166667
886.058955	1050.000316	39.183333
885.102535	1046.288582	39.200000
884.627270	1042.869102	39.216667
884.313684	1037.613876	39.233333
883.357852	1033.026445	39.250000
883.204741	1027.734533	39.266667
882.089305	1021.882944	39.283333
881.454427	1017.213582	39.300000
880.819248	1012.994517	39.316667
879.702310	1009.384261	39.333333
879.548284	1005.458312	39.350000
878.913980	999.932729	39.366667
878.279669	994.417383	39.383333
877.805837	988.858752	39.400000
876.850540	983.470949	39.416667
876.215621	978.862419	39.433333
875.420505	973.877417	39.450000
874.624798	969.774621	39.466667
873.989280	966.060530	39.483333
873.354050	961.915722	39.500000
872.879303	957.723349	39.516667
872.244647	952.721960	39.533333
871.449210	948.216614	39.550000
870.814253	943.664945	39.566667
870.018805	939.174354	39.583333
869.383260	935.500842	39.600000
868.909064	930.485061	39.616667
868.113602	926.015909	39.633333
867.799305	921.822504	39.650000
866.844210	916.134085	39.666667
866.209219	911.634533	39.683333
865.414023	906.768586	39.700000
864.778448	903.138350	39.716667
864.303643	899.032698	39.733333
863.669203	893.709787	39.750000
862.712929	889.779854	39.766667
862.238679	884.845443	39.783333
861.282397	880.928967	39.800000
860.807285	877.279830	39.816667
860.172251	872.844440	39.833333
859.537211	868.416394	39.850000
858.902167	863.995691	39.866667
858.267681	858.741373	39.883333
857.311372	854.864624	39.900000
856.676031	850.885830	39.916667
856.200892	847.277648	39.933333
855.887356	841.948183	39.950000
854.771383	836.899622	39.966667
854.136303	832.531671	39.983333
853.340453	828.641068	40.000000
852.705086	824.702373	40.016667
852.069992	820.355139	40.033333
851.434893	816.015244	40.050000
850.477709	813.444729	40.066667
850.323785	809.366971	40.083333
849.206662	806.033224	40.100000
848.731482	802.487310	40.116667
847.935601	798.643680	40.133333
847.620899	795.053816	40.150000
846.825560	790.401723	40.166667
846.511674	785.595287	40.183333
845.876809	780.906262	40.200000
844.921512	775.519296	40.216667
844.125876	771.310594	40.233333
843.651479	766.594051	40.250000
842.695346	762.455180	40.266667
842.059638	759.024814	40.283333
841.424198	755.194860	40.300000
840.627725	752.233381	40.316667
840.152764	748.359865	40.333333
839.196610	744.253231	40.350000
838.560614	741.251400	40.366667
838.085103	738.198911	40.383333
837.289154	734.456982	40.400000
836.974928	730.156816	40.416667
836.500480	725.518695	40.433333
835.705319	720.599467	40.450000
834.749132	716.541748	40.466667
833.952893	713.232270	40.483333
833.477890	709.421134	40.500000
833.002883	705.616036	40.516667
832.207694	700.738629	40.533333
831.732678	696.947435	40.550000
831.098228	691.638955	40.566667
829.981255	688.081342	40.583333
829.345475	684.758746	40.600000
828.388192	682.336217	40.616667
827.912630	679.359925	40.633333
827.437327	675.995672	40.650000
827.123033	671.799055	40.666667
826.167048	667.438673	40.683333
825.531508	663.756852	40.700000
824.735739	659.746791	40.716667
824.260677	656.022810	40.733333
823.625385	651.971847	40.750000
822.829601	647.983152	40.766667
822.194299	643.946856	40.783333
821.558733	640.303843	40.800000
820.923164	636.666893	40.816667
820.127361	632.706256	40.833333
819.652270	629.027029	40.850000
818.696228	624.752013	40.866667
817.899641	621.961927	40.883333
817.585024	618.245808	40.900000
816.467713	615.192845	40.916667
816.152834	611.869420	40.933333
815.517232	608.280403	40.950000
814.721394	604.372559	40.966667
814.407011	600.306647	40.983333
813.290190	596.523777	41.000000
812.814551	593.661904	41.016667
812.178928	590.103806	41.033333
811.382815	586.606968	41.050000
811.068410	582.574225	41.066667
810.112053	578.769662	41.083333
809.476414	575.237018	41.100000
808.840770	571.710432	41.116667
808.044385	568.619069	41.133333
807.408484	565.477363	41.150000
806.612342	562.023070	41.166667
806.458144	558.353595	41.183333
805.501755	554.595200	41.200000
804.865839	551.475325	41.216667
804.069681	548.045319	41.233333
803.273519	544.621399	41.250000
802.476610	542.311354	41.266667
802.322389	538.676200	41.283333
801.686950	534.845131	41.300000
801.211992	530.965945	41.316667
800.416793	526.104865	41.333333
799.299386	523.196115	41.350000
798.824168	519.704955	41.366667
797.867241	516.751190	41.383333
797.231041	514.055784	41.400000
797.076786	510.469926	41.416667
796.280823	506.748959	41.433333
795.645342	502.979784	41.450000
794.688639	499.690941	41.466667
793.891936	497.075380	41.483333
793.255958	494.047222	41.500000
792.458766	492.160905	41.516667
792.304485	488.614168	41.533333
791.508493	484.936593	41.550000
790.872743	481.569363	41.566667
790.076501	478.263840	41.583333
789.440263	475.623798	41.600000
788.965228	471.860887	41.616667
788.169452	467.860401	41.633333
787.372956	464.935396	41.650000
787.057918	461.848156	41.666667
785.940677	458.689891	41.683333
785.625632	455.612969	41.700000
784.829359	452.354768	41.716667
784.032845	449.455470	41.733333
783.396816	446.505316	41.750000
782.600059	443.967680	41.766667
782.124746	440.619736	41.783333
781.649194	437.628481	41.800000
780.531689	434.865467	41.816667
780.055896	432.233674	41.833333
779.098638	429.773332	41.850000
778.622606	427.498047	41.866667
778.147039	424.529139	41.883333
777.671468	421.565114	41.900000
777.035872	417.967683	41.916667
776.400271	414.377556	41.933333
775.443459	411.252360	41.950000
774.807617	408.021357	41.966667
773.689847	405.653570	41.983333
773.374051	403.698413	42.000000
772.898917	400.082268	42.016667
772.423779	396.473394	42.033333
771.466943	393.382232	42.050000
770.670363	390.582988	42.066667
770.033808	388.415431	42.083333
769.236993	385.965898	42.100000
768.600663	383.464211	42.116667
768.285533	380.514281	42.133333
767.649652	377.341979	42.150000
767.013994	373.836986	42.166667
766.378558	370.001275	42.183333
765.260975	367.354689	42.200000
764.785113	364.825458	42.216667
763.827786	362.468531	42.233333
763.512631	359.554922	42.250000
762.716011	356.814682	42.266667
762.240587	353.632164	42.283333
761.443959	350.902291	42.300000
760.807593	348.454890	42.316667
759.850025	346.457139	42.333333
759.374141	343.960816	42.350000
758.577279	341.580827	42.366667
758.422588	338.647853	42.383333
757.304967	336.057271	42.400000
756.989782	333.190298	42.416667
756.193351	330.166813	42.433333
755.235987	327.864981	42.450000
754.760083	325.398152	42.466667
754.284618	322.277803	42.483333
753.648440	319.547858	42.500000
753.173186	316.111482	42.516667
752.216245	313.178249	42.533333
751.419569	310.520997	42.550000
750.622672	308.194447	42.566667
749.986041	306.140769	42.583333
749.510114	303.708729	42.600000
749.195324	300.251095	42.616667
747.917170	297.786567	42.633333
747.441234	295.368054	42.650000
746.644319	293.066287	42.666667
746.007674	291.034269	42.683333
745.210755	288.739807	42.700000
744.895297	286.279821	42.716667
744.098588	283.672257	42.733333
743.783339	280.900120	42.750000
742.986837	277.982626	42.766667
742.190545	274.752117	42.783333
741.393608	272.484341	42.800000
740.757157	270.163917	42.816667
739.960002	268.221554	42.833333
739.644521	265.795288	42.850000
738.847998	262.909286	42.866667
737.890560	260.718012	42.883333
737.575071	258.304276	42.900000
736.617838	255.805678	42.916667
735.981157	253.827994	42.933333
735.504962	251.796663	42.950000
734.708209	249.254021	42.966667
734.232219	246.916202	42.983333
733.595738	244.638890	43.000000
732.638488	242.166542	43.016667
732.162281	240.152562	43.033333
731.526002	237.575601	43.050000
730.889719	235.003531	43.066667
730.253016	233.056816	43.083333
729.456240	230.550165	43.100000
728.819740	228.300944	43.116667
727.701567	226.534618	43.133333
727.225138	224.852810	43.150000
726.909401	222.808330	43.166667
726.273099	220.265116	43.183333
725.636793	217.726792	43.200000
724.839996	215.250138	43.216667
723.882298	213.447138	43.233333
723.406266	211.171161	43.250000
722.448359	209.679733	43.266667
722.132607	207.658462	43.283333
721.656772	205.088357	43.300000
720.699064	203.301145	43.316667
720.544199	200.626040	43.333333
719.426404	198.296894	43.350000
718.629176	196.463486	43.366667
718.152922	194.519321	43.383333
717.195202	192.748753	43.400000
716.879432	190.753631	43.416667
715.921910	188.688428	43.433333
715.445648	186.756539	43.450000
715.130072	184.470973	43.466667
714.012054	182.473868	43.483333
713.696474	180.196011	43.500000
712.578650	177.908494	43.516667
712.102177	176.291310	43.533333
711.626102	174.081487	43.550000
710.668559	172.046428	43.566667
710.192080	170.437229	43.583333
709.395021	168.352001	43.600000
708.597563	166.861875	43.616667
708.281964	164.612446	43.633333
707.163724	162.946653	43.650000
706.847922	160.998774	43.666667
706.211143	159.167889	43.683333
705.413873	157.397008	43.700000
705.098262	155.164914	43.716667
704.140696	153.164870	43.733333
703.664396	151.289641	43.750000
702.706825	149.296893	43.766667
702.069837	147.776354	43.783333
701.593726	145.619165	43.800000
700.796441	143.870385	43.816667
700.320131	142.010378	43.833333
699.683718	139.631437	43.850000
698.886427	137.892422	43.866667
698.410497	135.465044	43.883333
697.292225	133.847102	43.900000
696.494542	132.693274	43.916667
696.178707	130.794725	43.933333
695.060045	129.758880	43.950000
694.904503	128.094888	43.966667
693.946903	126.146393	43.983333
693.309701	124.944860	44.000000
692.512202	123.516471	44.016667
691.874998	122.318296	44.033333
691.237985	120.836738	44.050000
691.082625	118.901252	44.066667
690.285310	117.197550	44.083333
689.969648	115.041561	44.100000
688.691054	113.232804	44.116667
688.214709	111.424400	44.133333
687.256897	109.790694	44.150000
686.780171	108.551982	44.166667
686.303821	106.751611	44.183333
685.666980	105.011460	44.200000
684.869649	103.331553	44.216667
684.232805	101.597338	44.233333
683.114306	100.317845	44.250000
682.798060	99.033655	44.266667
681.679558	97.758216	44.283333
681.523798	96.420046	44.300000
681.047434	94.640824	44.316667
680.249904	93.257340	44.333333
679.613234	91.263224	44.350000
678.815701	89.884850	44.366667
678.339329	88.117039	44.383333
677.541793	86.743407	44.400000
676.744441	85.095812	44.416667
676.267878	83.612197	44.433333
675.470522	81.970122	44.450000
674.672796	80.881007	44.466667
674.035556	79.736040	44.483333
673.237828	78.649989	44.500000
672.761075	77.450676	44.516667
672.124016	76.036459	44.533333
671.326284	74.955296	44.550000
670.849711	73.487675	44.566667
670.051977	72.409870	44.583333
669.575401	70.946244	44.600000
668.938517	69.270141	44.616667
668.140780	68.197825	44.633333
667.664381	66.469364	44.650000
666.866823	65.129705	44.666667
666.229751	63.734779	44.683333
665.592496	62.612319	44.700000
664.794933	61.278871	44.716667
664.318165	60.102283	44.733333
663.360111	58.830336	44.750000
662.562364	57.772067	44.766667
661.925104	56.657834	44.783333
661.127175	55.871044	44.800000
660.650222	54.970235	44.816667
660.012960	53.859968	44.833333
659.215028	53.076375	44.850000
658.738252	51.911339	44.866667
658.261476	50.747814	44.883333
657.624388	49.376590	44.900000
657.147787	47.950011	44.916667
656.350030	46.906706	44.933333
655.712938	45.541667	44.950000
654.915356	44.236362	44.966667
654.278262	42.875689	44.983333
653.640988	41.781839	45.000000
652.682559	41.069050	45.016667
652.045284	39.977952	45.033333
651.247342	39.209811	45.050000
650.449400	38.442659	45.066667
650.132923	37.503732	45.083333
649.174491	36.796137	45.100000
648.537035	35.974345	45.116667
648.060067	35.095933	45.133333
647.583098	34.218493	45.150000
647.106480	32.817738	45.166667
646.308708	31.796137	45.183333
645.671424	30.718446	45.200000
645.034139	29.642275	45.216667
644.236364	28.625256	45.233333
643.438588	27.609767	45.250000
642.640637	26.856119	45.266667
641.842510	26.363585	45.283333
641.686512	25.381079	45.300000
640.888733	24.370487	45.316667
640.251267	23.563115	45.333333
639.453486	22.555278	45.350000
638.655357	22.066640	45.366667
637.857401	21.319883	45.383333
637.380249	20.717209	45.400000
636.903269	19.856824	45.416667
636.426288	18.997410	45.433333
635.468014	18.054300	45.450000
634.830543	17.254769	45.466667
634.193072	16.456217	45.483333
633.555427	15.915642	45.500000
632.757466	15.176508	45.516667
632.280310	14.579527	45.533333
631.642836	13.784408	45.550000
631.005362	12.990268	45.566667
630.046910	12.312539	45.583333
629.569751	11.718317	45.600000
628.932275	10.926876	45.616667
628.294628	10.391664	45.633333
627.657150	9.601940	45.650000
626.859013	9.125755	45.666667
626.382023	8.280013	45.683333
625.583885	7.805130	45.700000
624.946235	7.273066	45.716667
624.308585	6.741557	45.733333
623.510616	6.014495	45.750000
622.712306	5.795715	45.766667
622.395802	4.896872	45.783333
621.597491	4.678845	45.800000
620.960009	3.896987	45.816667
620.161698	3.679718	45.833333
619.684534	3.094341	45.850000
618.725903	2.682827	45.866667
618.409058	2.293254	45.883333
617.771404	1.767129	45.900000
617.133750	1.241560	45.916667
616.495926	0.968530	45.933333
615.858271	0.443892	45.950000
614.899470	0.287060	45.966667
614.422135	-0.042874	45.983333
613.623653	-0.005487	46.000000
613.146318	-0.335042	46.016667
612.348005	-0.548762	46.033333
611.710180	-0.820021	46.050000
611.393164	-0.955556	46.066667
610.594851	-1.168639	46.083333
610.117514	-1.497064	46.100000
609.640178	-1.825242	46.116667
608.841864	-2.037563	46.133333
608.685504	-2.480851	46.150000
607.726701	-2.634861	46.166667
607.409853	-3.019848	46.183333
606.932515	-3.346780	46.200000
606.294856	-3.865620	46.216667
605.657030	-4.134115	46.233333
604.858715	-4.344540	46.250000
604.221055	-4.862072	46.266667
603.422739	-5.071863	46.283333
602.784912	-5.339224	46.300000
602.307573	-5.664160	46.316667
601.669912	-6.180013	46.333333
600.871596	-6.388665	46.350000
600.233768	-6.654894	46.366667
599.435618	-7.111604	46.383333
598.958278	-7.435045	46.400000
597.999472	-7.584713	46.416667
597.522298	-8.155795	46.433333
596.723980	-8.362671	46.450000
595.925662	-8.569292	46.466667
595.287833	-8.833507	46.483333
594.329026	-8.981765	46.500000
593.370219	-9.129763	46.516667
593.213855	-9.566783	46.533333
592.094559	-9.656413	46.550000
591.617218	-9.977220	46.566667
590.818899	-10.182055	46.583333
590.020579	-10.386633	46.600000
589.543072	-10.459894	46.616667
588.584264	-10.606221	46.633333
587.625455	-10.752287	46.650000
586.666482	-10.651613	46.666667
585.547184	-10.739411	46.683333
584.588210	-10.638528	46.700000
582.987282	-10.306077	46.716667
582.028308	-10.205048	46.733333
580.106237	-9.510542	46.750000
578.504978	-8.685589	46.766667
577.545674	-8.092091	46.783333
576.104904	-7.324926	46.800000
575.466577	-6.847079	46.816667
574.025807	-6.079824	46.833333
572.745195	-4.877305	46.850000
573.390778	-4.862140	46.866667
573.554895	-4.673309	46.883333
574.682109	-5.078374	46.900000
574.685903	-5.078374	46.916667
574.529373	-5.267212	46.933333
573.891211	-5.035742	46.950000
573.253215	-5.050910	46.966667
572.775708	-5.123880	46.983333
571.977223	-5.081045	47.000000
571.339226	-5.096011	47.016667
571.343185	-5.342401	47.033333
570.544534	-5.053039	47.050000
570.227515	-5.183618	47.066667
569.589684	-5.444587	47.083333
567.988755	-5.111965	47.100000
565.585383	-4.489877	47.116667
563.662982	-3.303190	47.133333
564.148406	-3.722927	47.150000
566.399041	-4.533200	47.166667
565.440232	-4.677999	47.183333
564.641747	-4.634542	47.200000
561.917232	-3.650587	47.216667
561.439724	-3.722805	47.233333
561.443517	-3.722805	47.250000
560.644867	-3.433401	47.266667
560.648825	-3.679195	47.283333
559.047731	-3.100377	47.300000
559.372667	-3.461867	47.316667
559.697602	-3.823303	47.333333
557.936184	-3.432181	47.350000
557.940142	-3.677722	47.366667
555.857746	-3.170675	47.383333
554.737954	-2.520004	47.400000
553.939468	-2.476032	47.416667
553.301307	-2.244483	47.433333
554.107708	-2.779319	47.450000
553.790689	-2.908882	47.466667
553.634158	-3.096272	47.483333
553.156649	-3.167820	47.500000
550.432298	-2.428814	47.516667
548.991693	-1.907785	47.533333
548.834998	-1.849892	47.550000
548.036348	-1.560431	47.566667
549.645192	-2.384432	47.583333
549.488825	-2.816516	47.600000
548.369362	-2.656144	47.616667
546.286966	-2.148316	47.633333
544.365058	-1.698301	47.650000
544.529340	-1.756199	47.666667
544.051668	-1.582504	47.683333
543.413506	-1.350911	47.700000
544.059418	-1.827195	47.716667
542.618977	-1.550724	47.733333
542.783423	-1.853190	47.750000
541.824611	-1.994723	47.766667
540.544495	-1.531497	47.783333
539.906497	-1.544255	47.800000
537.984426	-0.849402	47.816667
539.272293	-1.556945	47.833333
538.634295	-1.569569	47.850000
537.354342	-1.350497	47.866667
537.679276	-1.710433	47.883333
535.757368	-1.259584	47.900000
534.798393	-1.156114	47.916667
535.283816	-1.573775	47.933333
533.682722	-0.994661	47.950000
534.168308	-1.656065	47.966667
533.048680	-1.250672	47.983333
531.126772	-0.799439	48.000000
531.130565	-0.799439	48.016667
529.850612	-0.579785	48.033333
531.298967	-1.344635	48.050000
530.500480	-1.298601	48.066667
528.418083	-0.789150	48.083333
528.582691	-1.333846	48.100000
526.179153	-0.465040	48.116667
527.145879	-0.812563	48.133333
525.063645	-0.546096	48.150000
525.388416	-0.661941	48.166667
527.478889	-1.901223	48.183333
524.112581	-0.927850	48.200000
522.993116	-0.765344	48.216667
522.194466	-0.475712	48.233333
520.914512	-0.255201	48.250000
522.844170	-0.950330	48.266667
521.243402	-0.856684	48.283333
521.568335	-1.215270	48.300000
520.770010	-1.410887	48.316667
517.082562	-0.078442	48.333333
517.728310	-0.310172	48.350000
516.769334	-0.205099	48.366667
517.254593	-0.378900	48.383333
517.900666	-1.095514	48.400000
516.460386	-1.058723	48.416667
516.303853	-1.243011	48.433333
513.900639	-0.858179	48.450000
512.139056	-0.220836	48.466667
512.624316	-0.394657	48.483333
510.862733	0.242688	48.500000
512.953042	-0.752565	48.516667
512.796671	-1.178500	48.533333
510.072479	-0.677073	48.550000
511.199856	-1.324412	48.566667
506.870453	0.240138	48.583333
508.479134	-0.339326	48.600000
507.359668	-0.175342	48.616667
506.721668	-0.185131	48.633333
507.207089	-0.600497	48.650000
505.927135	-0.378359	48.666667
506.412718	-1.034949	48.683333
504.972274	-0.754652	48.700000
502.408408	-0.068599	48.716667
503.375134	-0.416325	48.733333
500.650780	0.327769	48.750000
502.901416	-0.483605	48.766667
501.621623	-0.502056	48.783333
500.502156	-0.337308	48.800000
501.629694	-1.224754	48.816667
498.744850	-0.422238	48.833333
496.662290	0.331258	48.850000
498.913087	-0.720905	48.866667
495.386289	0.313635	48.883333
497.636925	-0.497849	48.900000
496.036153	-0.399302	48.916667
495.719130	-0.523824	48.933333
495.402107	-0.648283	48.950000
492.838241	0.038873	48.966667
493.002684	-0.259354	48.983333
492.685661	-0.383615	49.000000
491.245216	-0.102015	49.016667
492.051614	-0.631947	49.033333
489.969214	-0.118317	49.050000
489.973168	-0.358264	49.066667
488.853701	-0.192328	49.083333
488.055050	0.097547	49.100000
489.343075	-0.845843	49.116667
486.458231	-0.041951	49.133333
487.264629	-0.571476	49.150000
486.145322	-0.644706	49.166667
483.260317	0.398948	49.183333
484.868998	-0.180860	49.200000
482.786598	0.333457	49.216667
484.074462	-0.369779	49.233333
484.881020	-1.138288	49.250000
482.156824	-0.630878	49.266667
481.518823	-0.638003	49.283333
479.115444	-0.007188	49.300000
477.995816	0.398732	49.316667
478.801893	0.347786	49.333333
479.287473	-0.304118	49.350000
479.612564	-0.897806	49.366667
479.135211	-1.201300	49.383333
476.089877	-0.338053	49.400000
475.291387	-0.286645	49.416667
472.406222	0.995821	49.433333
474.817347	0.125902	49.450000
474.018856	0.177318	49.466667
474.825413	-0.589605	49.483333
473.706105	-0.660322	49.500000
471.784192	-0.202579	49.516667
470.022609	0.435424	49.533333
471.792098	-0.678901	49.550000
468.907093	0.365139	49.566667
470.355604	-0.632951	49.583333
467.791736	0.057185	49.600000
468.598133	-0.470718	49.616667
466.515572	0.283361	49.633333
466.519684	-0.192192	49.650000
465.560545	0.155856	49.666667
466.366941	-0.371872	49.683333
464.605835	-0.446450	49.700000
464.449299	-0.625879	49.716667
462.206249	0.186301	49.733333
462.370690	-0.109081	49.750000
460.609107	0.529072	49.766667
461.575992	-0.056318	49.783333
460.938148	-0.298687	49.800000
460.781611	-0.477795	49.816667
458.859698	-0.018637	49.833333
459.024139	-0.313653	49.850000
456.941736	0.203678	49.866667
457.266666	-0.149233	49.883333
455.986708	0.078138	49.900000
455.990660	-0.158606	49.916667
455.673634	-0.279242	49.933333
454.393675	-0.051663	49.950000
454.076649	-0.172168	49.966667
453.117827	-0.296933	49.983333
451.516732	0.283351	50.000000
451.360195	0.105015	50.016667
451.043169	-0.015229	50.033333
451.368098	-0.367535	50.050000
450.569606	-0.313562	50.066667
448.968827	-0.205409	50.083333
448.009688	0.142796	50.100000
447.371684	0.138946	50.116667
447.375635	-0.096983	50.133333
447.058767	-0.452587	50.150000
445.297341	-0.049909	50.166667
444.980157	0.066169	50.183333
445.305244	-0.521213	50.200000
443.062352	0.055809	50.216667
443.868747	-0.469896	50.233333
442.107321	-0.066852	50.250000
441.790294	-0.186131	50.266667
441.152290	-0.189256	50.283333
440.032662	0.217064	50.300000
439.876281	-0.195307	50.316667
439.398766	-0.256282	50.333333
438.118806	-0.026944	50.350000
438.764712	-0.494138	50.366667
436.361330	0.141696	50.383333
436.525770	-0.151220	50.400000
435.085321	0.136453	50.416667
435.089114	0.136453	50.433333
435.895667	-0.623243	50.450000
433.492285	0.012974	50.466667
433.977702	-0.395751	50.483333
432.216432	-0.226038	50.500000
430.936315	0.238435	50.516667
431.261243	-0.112048	50.533333
429.820636	0.410493	50.550000
430.466699	-0.290290	50.566667
430.310161	-0.466410	50.583333
428.067267	0.112360	50.600000
428.231706	-0.179757	50.616667
426.470436	-0.008952	50.633333
425.832274	0.223315	50.650000
426.478179	-0.242818	50.666667
424.235285	0.336336	50.683333
425.683635	-0.420026	50.700000
424.082853	-0.306623	50.716667
422.963381	-0.133674	50.733333
423.127819	-0.425240	50.750000
420.403302	0.562008	50.766667
422.172630	-0.310229	50.783333
420.411202	0.095228	50.800000
419.291573	0.501755	50.816667
420.740079	-0.487471	50.833333
418.818319	-0.256836	50.850000
418.822268	-0.489893	50.866667
416.579530	-0.142686	50.883333
414.817790	0.729133	50.900000
416.426628	-0.084604	50.916667
415.467644	0.031026	50.933333
415.311260	-0.376436	50.950000
414.352276	-0.260606	50.966667
412.751337	0.087640	50.983333
413.557731	-0.435350	51.000000
410.351903	0.493923	51.016667
411.479118	0.087303	51.033333
410.680778	-0.087041	51.050000
409.400817	0.145386	51.066667
410.207210	-0.377315	51.083333
408.124804	0.145713	51.100000
407.005175	0.552366	51.116667
408.453524	-0.202590	51.133333
405.889806	0.262893	51.150000
407.819621	-0.666197	51.166667
405.255903	-0.200310	51.183333
403.975941	0.032744	51.200000
403.658912	-0.082733	51.216667
401.255372	0.788780	51.233333
403.345521	0.033468	51.250000
402.707669	-0.197295	51.266667
401.588196	-0.022065	51.283333
403.197188	-1.065920	51.300000
398.707603	0.098501	51.316667
399.513840	-0.192037	51.333333
396.949967	0.506515	51.350000
396.793116	0.795791	51.366667
397.599509	0.274081	51.383333
396.801168	0.102464	51.400000
397.286582	-0.302861	51.416667
396.969862	-0.879262	51.433333
393.764033	0.052278	51.450000
394.409936	-0.410866	51.466667
391.525084	0.404612	51.483333
392.170678	0.402757	51.500000
391.853803	0.057826	51.516667
390.413197	0.580887	51.533333
391.540721	-0.286862	51.550000
390.902713	-0.284753	51.566667
389.783239	-0.108214	51.583333
389.947829	-0.626771	51.600000
386.902488	0.247461	51.616667
387.387902	-0.156969	51.633333
384.824028	0.543053	51.650000
385.469622	0.540535	51.666667
385.955191	-0.093761	51.683333
383.872783	0.432032	51.700000
385.481619	-0.379059	51.716667
384.843918	-0.835611	51.733333
383.082641	-0.655227	51.750000
382.604968	-0.480827	51.766667
378.917671	0.626828	51.783333
379.723755	0.565580	51.800000
379.246235	0.510558	51.816667
378.608227	0.513737	51.833333
380.538040	-0.413203	51.850000
378.616274	-0.173992	51.866667
379.262330	-0.864744	51.883333
377.180075	-0.566863	51.900000
374.937177	0.018255	51.916667
373.657059	0.483400	51.933333
373.339875	0.599686	51.950000
373.985624	0.367114	51.966667
374.471190	-0.264873	51.983333
372.709759	0.146039	52.000000
373.837281	-0.718179	52.016667
372.236492	-0.593648	52.033333
370.154082	-0.066078	52.050000
369.034606	0.112667	52.066667
367.433511	0.694181	52.083333
368.560726	0.287121	52.100000
368.725162	0.000723	52.116667
367.605838	-0.048517	52.133333
367.930762	-0.392892	52.150000
366.330125	-0.495162	52.166667
365.531474	-0.204373	52.183333
364.251661	-0.194673	52.200000
362.650565	0.386924	52.216667
362.173045	0.333721	52.233333
362.016349	0.391882	52.250000
361.859806	0.222421	52.266667
362.024393	-0.290809	52.283333
361.546872	-0.343763	52.300000
360.909015	-0.565809	52.316667
358.345138	0.137600	52.333333
357.225661	0.317585	52.350000
357.711073	-0.084047	52.366667
356.430955	0.381304	52.383333
356.916368	-0.020268	52.400000
355.796891	0.159921	52.416667
355.479858	0.049323	52.433333
355.804933	-0.520727	52.450000
354.685608	-0.566972	52.466667
352.442709	0.020853	52.483333
352.286165	-0.147540	52.500000
350.043113	0.666941	52.516667
350.688862	0.434232	52.533333
350.692808	0.207730	52.550000
349.894308	0.272182	52.566667
351.182316	-0.645966	52.583333
349.100057	-0.342073	52.600000
349.104002	-0.568214	52.616667
346.540275	-0.089353	52.633333
344.778690	0.550687	52.650000
344.782332	0.776687	52.666667
344.786277	0.550687	52.683333
345.592818	-0.192072	52.700000
345.757403	-0.701858	52.716667
343.354165	-0.280358	52.733333
343.679087	-0.622322	52.750000
341.436186	-0.033148	52.766667
339.835242	0.323337	52.783333
339.357568	0.497918	52.800000
339.521850	0.439724	52.816667
339.686284	0.156146	52.833333
339.369401	-0.178053	52.850000
337.929096	-0.104623	52.866667
338.414507	-0.504301	52.883333
335.369161	0.376476	52.900000
336.015061	-0.081278	52.916667
335.056072	0.043040	52.933333
334.578398	0.217646	52.950000
334.422004	-0.173747	52.966667
333.142036	0.067181	52.983333
331.862069	0.308182	53.000000
332.187141	-0.257330	53.016667
329.783450	0.840289	53.033333
332.194878	-0.481792	53.050000
329.791638	-0.057389	53.066667
329.955920	-0.115599	53.083333
329.318058	-0.331241	53.100000
328.198579	-0.147904	53.116667
327.560717	-0.363163	53.133333
324.836349	0.402534	53.150000
324.519014	0.742916	53.166667
325.806869	0.053241	53.183333
324.687540	0.013023	53.200000
325.975544	-0.900221	53.216667
323.893281	-0.590621	53.233333
322.292185	-0.008412	53.250000
321.654322	-0.222517	53.266667
319.571759	0.534380	53.283333
319.896530	0.417935	53.300000
320.221451	0.078090	53.316667
319.262461	0.204098	53.333333
321.192421	-0.941112	53.350000
318.147372	-0.504092	53.366667
316.225298	0.194657	53.383333
316.068752	0.029921	53.400000
313.986040	1.009867	53.416667
316.878634	-0.038259	53.433333
315.117497	-0.066442	53.450000
314.800462	-0.172761	53.466667
314.002258	-0.549578	53.483333
311.919844	-0.015050	53.500000
311.602809	-0.121048	53.516667
310.322690	0.344850	53.533333
309.845017	0.519562	53.550000
311.453849	-0.285223	53.566667
308.408650	0.376688	53.583333
309.696504	-0.311458	53.600000
306.972282	0.234390	53.616667
307.778521	-0.056823	53.633333
307.622123	-0.442600	53.650000
305.218730	0.209158	53.666667
305.222672	-0.012692	53.683333
304.103340	-0.048479	53.700000
302.662584	0.697472	53.716667
304.111075	-0.270147	53.733333
302.189150	0.207241	53.750000
303.477003	-0.480305	53.766667
302.357670	-0.515456	53.783333
300.114767	0.078726	53.800000
299.797878	-0.247293	53.816667
297.715315	0.510025	53.833333
297.719109	0.510025	53.850000
298.365006	0.055836	53.866667
296.603569	0.475555	53.883333
298.693867	-0.502838	53.900000
297.093215	-0.583038	53.916667
295.973733	-0.396016	53.933333
294.693911	-0.371340	53.950000
291.006310	1.189375	53.966667
292.935823	0.710952	53.983333
292.779423	0.327819	54.000000
292.783364	0.107210	54.016667
293.590046	-0.845601	54.033333
290.705185	-0.017162	54.050000
290.869763	-0.515983	54.066667
288.947836	-0.036927	54.083333
287.025761	0.662318	54.100000
287.511169	0.267395	54.116667
286.873154	0.280431	54.133333
287.679540	-0.230926	54.150000
286.399716	-0.204543	54.166667
284.638278	0.216678	54.183333
285.123685	-0.177897	54.200000
283.683372	-0.092710	54.216667
282.884868	-0.020877	54.233333
282.246852	-0.007257	54.250000
280.806245	0.517265	54.266667
281.291652	0.122991	54.283333
280.332805	0.033997	54.300000
280.497088	-0.024286	54.316667
279.859366	-0.448728	54.333333
278.097780	0.192412	54.350000
279.064801	-0.595382	54.366667
276.821895	0.001700	54.383333
275.220945	0.365709	54.400000
274.903761	0.482287	54.416667
274.426087	0.657154	54.433333
275.553450	0.030314	54.450000
275.236558	-0.290560	54.466667
273.635755	-0.144844	54.483333
274.442286	-0.873287	54.500000
270.273512	0.424011	54.516667
270.437794	0.365714	54.533333
269.157676	0.832084	54.550000
270.285038	0.205691	54.566667
269.968000	0.104027	54.583333
269.811743	-0.492098	54.600000
268.371427	-0.403367	54.616667
267.572921	-0.329750	54.633333
265.330015	0.268671	54.650000
265.494297	0.210367	54.666667
264.374813	0.400735	54.683333
263.897286	0.357951	54.700000
264.222203	0.023697	54.716667
263.744675	-0.018964	54.733333
262.946315	-0.162403	54.750000
262.629421	-0.480524	54.766667
260.386514	0.118561	54.783333
260.871920	-0.273590	54.800000
258.949991	0.209019	54.816667
258.953784	0.209019	54.833333
258.476256	0.166877	54.850000
257.838239	0.183113	54.866667
257.681834	-0.192438	54.883333
257.043816	-0.176012	54.900000
255.443010	-0.026322	54.916667
255.767782	-0.142962	54.933333
254.006486	0.065315	54.950000
253.849935	-0.092896	54.966667
252.409473	0.215541	54.983333
251.610821	0.507158	55.000000
252.898672	-0.175839	55.016667
251.939676	-0.042240	55.033333
251.622781	-0.358104	55.050000
250.503441	-0.382083	55.066667
248.260677	0.002508	55.083333
247.301392	0.568460	55.100000
246.984352	0.469151	55.116667
246.988145	0.469151	55.133333
248.918096	-0.662595	55.150000
245.872887	0.014199	55.166667
246.518926	-0.650425	55.183333
245.078462	-0.340953	55.200000
242.514576	0.376953	55.216667
242.679002	0.103197	55.233333
241.398884	0.569903	55.250000
241.563166	0.511565	55.266667
242.209204	-0.152445	55.283333
240.768740	0.157382	55.300000
241.896245	-0.681306	55.316667
239.172013	-0.119522	55.333333
239.015605	-0.490981	55.350000
236.451574	0.442555	55.366667
236.295023	0.286102	55.383333
236.459305	0.227755	55.400000
235.821286	0.246404	55.416667
235.343756	0.206770	55.433333
236.150282	-0.514160	55.450000
233.586539	-0.009481	55.466667
234.393064	-0.729941	55.483333
231.187221	0.222888	55.500000
231.030381	0.495488	55.516667
231.355440	-0.049654	55.533333
229.914832	0.475546	55.550000
230.721214	-0.030358	55.566667
229.922849	-0.166644	55.583333
228.000917	0.319718	55.600000
229.449398	-0.633224	55.616667
226.243554	0.320238	55.633333
226.728958	-0.068542	55.650000
225.449125	-0.028844	55.666667
224.329495	0.379706	55.683333
224.975388	-0.067261	55.700000
222.892967	0.478043	55.716667
223.699348	-0.027173	55.733333
223.863916	-0.512139	55.750000
221.941984	-0.024919	55.766667
222.908997	-0.801373	55.783333
219.061339	0.173568	55.800000
219.546457	0.211405	55.816667
219.229557	-0.097700	55.833333
216.986362	0.932414	55.850000
218.755677	0.077421	55.866667
217.475986	-0.093896	55.883333
217.961389	-0.481678	55.900000
217.484000	-0.731675	55.916667
214.117808	0.069420	55.933333
214.442437	0.165061	55.950000
213.162602	0.207366	55.966667
212.684929	0.382510	55.983333
213.491452	-0.333897	56.000000
210.927562	0.388082	56.016667
212.536388	-0.407856	56.033333
211.096064	-0.306401	56.050000
208.853153	0.299105	56.066667
210.461979	-0.496622	56.083333
207.577253	0.130862	56.100000
208.383491	-0.161087	56.116667
207.103656	-0.117232	56.133333
205.181581	0.583467	56.150000
206.790406	-0.211992	56.166667
205.029103	0.007434	56.183333
205.835484	-0.495899	56.200000
204.395159	-0.392878	56.216667
201.831268	0.330303	56.233333
203.118974	-0.136877	56.250000
200.394736	0.433740	56.266667
201.361323	0.294391	56.283333
201.686377	-0.244443	56.300000
199.443465	0.362239	56.316667
200.731453	-0.526645	56.333333
198.007215	0.044785	56.350000
197.369193	0.067787	56.366667
197.212638	-0.084365	56.383333
195.932660	0.172392	56.400000
197.060018	-0.446895	56.416667
195.138224	-0.166686	56.433333
193.858105	0.300590	56.450000
194.183158	-0.236668	56.466667
192.261083	0.464265	56.483333
193.709559	-0.481634	56.500000
192.269092	-0.165924	56.516667
190.668276	-0.001605	56.533333
190.511580	0.056810	56.550000
188.589786	0.338232	56.566667
188.914557	0.221398	56.583333
189.078980	-0.046715	56.600000
187.317534	0.386254	56.616667
189.086988	-0.675451	56.633333
186.202259	-0.042721	56.650000
186.687659	-0.427319	56.666667
184.444746	0.181339	56.683333
183.806723	0.205833	56.700000
184.452613	-0.237011	56.716667
182.370188	0.313443	56.733333
182.053144	0.221279	56.750000
183.340990	-0.455102	56.766667
180.937727	0.003588	56.783333
181.102149	-0.263619	56.800000
179.340702	0.170406	56.816667
178.863168	0.137051	56.833333
179.188079	-0.188405	56.850000
177.266143	0.304267	56.866667
176.949238	0.004265	56.883333
176.150586	0.296443	56.900000
175.352073	0.380282	56.916667
175.837474	-0.003310	56.933333
175.199590	-0.185945	56.950000
174.722194	-0.426774	56.966667
172.960886	-0.199821	56.983333
172.162234	0.092390	57.000000
171.363722	0.176751	57.016667
170.404720	0.319622	57.033333
170.729630	-0.004997	57.050000
171.054541	-0.329560	57.066667
169.935189	-0.335602	57.083333
169.618143	-0.426198	57.100000
167.856834	-0.198059	57.116667
166.416365	0.120690	57.133333
166.259669	0.179140	57.150000
164.498082	0.822097	57.166667
165.625438	0.205706	57.183333
165.469020	-0.150140	57.200000
165.794069	-0.681112	57.216667
164.514227	-0.627294	57.233333
162.271450	-0.222468	57.250000
160.188746	0.744229	57.266667
160.834635	0.303655	57.283333
160.517588	0.213886	57.300000
160.200542	0.124179	57.316667
160.525452	-0.199308	57.333333
159.727215	-0.526346	57.350000
158.286744	-0.206502	57.366667
157.648857	-0.385111	57.383333
155.566292	0.374941	57.400000
154.767640	0.667269	57.416667
154.771434	0.667269	57.433333
156.701510	-0.652561	57.450000
155.261178	-0.538204	57.466667
153.339378	-0.248171	57.483333
151.898769	0.278071	57.500000
151.581860	-0.016337	57.516667
151.585791	-0.221924	57.533333
150.145320	0.098818	57.550000
149.507157	0.332716	57.566667
150.153182	-0.312051	57.583333
148.712711	0.008896	57.600000
148.074823	-0.167693	57.616667
147.436797	-0.138935	57.633333
145.996326	0.182289	57.650000
146.481724	-0.198189	57.666667
144.720274	0.240136	57.683333
144.884694	-0.023257	57.700000
144.407294	-0.257451	57.716667
143.608779	-0.169758	57.733333
142.649775	-0.023512	57.750000
141.851397	-0.140230	57.766667
140.250299	0.444648	57.783333
141.698632	-0.286229	57.800000
139.455714	0.328196	57.816667
139.780760	-0.197444	57.833333
138.821892	-0.254915	57.850000
138.023376	-0.166569	57.866667
137.866817	-0.312134	57.883333
135.142432	0.478285	57.900000
135.627693	0.302799	57.916667
136.273716	-0.338990	57.933333
134.672755	0.042170	57.950000
135.479267	-0.657767	57.966667
132.273550	0.105034	57.983333
132.919300	-0.128970	58.000000
131.639453	-0.067906	58.016667
131.001426	-0.037277	58.033333
131.165845	-0.299104	58.050000
129.404258	0.344442	58.066667
129.247834	-0.003507	58.083333
129.572742	-0.323659	58.100000
126.848492	0.264875	58.116667
127.975710	-0.144682	58.133333
126.856351	-0.140970	58.150000
125.897345	0.007260	58.166667
126.222253	-0.312535	58.183333
123.337377	0.537972	58.200000
124.625220	-0.132775	58.216667
122.542790	0.425316	58.233333
122.707208	0.164280	58.250000
123.032116	-0.155215	58.266667
121.431289	0.025201	58.283333
121.595842	-0.437824	58.300000
120.957950	-0.608017	58.316667
118.073074	0.243319	58.333333
119.200427	-0.368309	58.350000
115.512834	1.179660	58.366667
118.726546	-0.192743	58.383333
117.928164	-0.303904	58.400000
116.808804	-0.297764	58.416667
116.652378	-0.642530	58.433333
114.088615	-0.109132	58.450000
113.289963	0.183511	58.466667
113.454380	-0.076443	58.483333
110.890347	0.860028	58.500000
114.425037	-0.628990	58.516667
111.700784	-0.036519	58.533333
112.346804	-0.672961	58.550000
110.264508	-0.314087	58.566667
108.503055	0.128864	58.583333
108.186005	0.045061	58.600000
107.868954	-0.038679	58.616667
106.428345	0.488158	58.633333
108.197654	-0.356512	58.650000
105.473400	0.237326	58.666667
107.242843	-0.807708	58.683333
104.358100	-0.154798	58.700000
103.238335	0.455386	58.716667
104.526310	-0.413671	58.733333
102.123035	0.064024	58.750000
102.287317	0.005478	58.766667
101.328444	-0.043470	58.783333
99.406367	0.659095	58.800000
101.657277	-0.560555	58.816667
99.735468	-0.257710	58.833333
99.578906	-0.398941	58.850000
98.138564	-0.271354	58.866667
95.574531	0.665489	58.883333
97.022861	-0.061079	58.900000
95.742874	0.207820	58.916667
95.907291	-0.050205	58.933333
95.108905	-0.156189	58.950000
94.150031	-0.203366	58.966667
94.314447	-0.461096	58.983333
91.750547	0.276748	59.000000
91.593984	0.136267	59.016667
92.079378	-0.238401	59.033333
89.354989	0.558230	59.050000
91.766253	-0.519071	59.066667
89.362975	-0.038162	59.083333
88.885434	-0.061146	59.100000
88.247537	-0.224060	59.116667
86.967550	0.045982	59.133333
86.650498	-0.035316	59.150000
86.333579	-0.314869	59.166667
83.930034	0.563684	59.183333
86.180809	-0.454555	59.200000
84.098509	-0.089451	59.216667
83.620967	-0.111802	59.233333
82.822580	-0.214891	59.250000
81.382103	0.114400	59.266667
81.386029	-0.083425	59.283333
80.106042	0.187427	59.300000
80.109967	-0.010275	59.316667
80.595493	-0.581243	59.333333
78.352570	0.041354	59.350000
78.838096	-0.529254	59.366667
75.953216	0.327891	59.383333
76.598966	0.093559	59.400000
75.961067	-0.066598	59.416667
74.680947	0.402078	59.433333
74.845494	-0.050752	59.450000
74.207462	-0.013440	59.466667
73.730052	-0.231563	59.483333
74.054956	-0.545596	59.500000
70.688740	0.291272	59.516667
71.013511	0.174090	59.533333
70.214990	0.270381	59.550000
69.737448	0.249554	59.566667
69.901862	-0.005583	59.583333
69.103473	-0.105524	59.600000
68.626062	-0.322408	59.616667
67.827672	-0.421854	59.633333
65.905726	0.085203	59.650000
65.909651	-0.110856	59.666667
64.148063	0.533738	59.683333
63.830878	0.650937	59.700000
64.958359	-0.151193	59.716667
63.678501	-0.074073	59.733333
63.522067	-0.406924	59.750000
62.563188	-0.446510	59.766667
60.801731	0.002643	59.783333
60.163698	0.041621	59.800000
58.402241	0.490920	59.816667
59.529328	0.276050	59.833333
59.373025	-0.251326	59.850000
58.734992	-0.212095	59.866667
58.578558	-0.543724	59.883333
56.175274	-0.054529	59.900000
55.697731	-0.073591	59.916667
54.899209	0.024641	59.933333
53.779708	0.240170	59.950000
53.462523	0.357402	59.966667
53.145468	0.279919	59.983333
53.309881	0.026645	60.000000
53.635044	-0.674216	60.016667
52.355184	-0.594040	60.033333
50.433367	-0.279114	60.050000
49.795334	-0.238797	60.066667
47.552278	0.581933	60.083333
48.358518	0.288815	60.100000
47.078528	0.563701	60.116667
48.687473	-0.410589	60.133333
48.049569	-0.563892	60.150000
46.448730	-0.365176	60.166667
45.329229	-0.148460	60.183333
43.567771	0.302848	60.200000
43.411075	0.361479	60.216667
42.933530	0.343812	60.233333
42.295496	0.384840	60.250000
42.781016	-0.177881	60.266667
41.982623	-0.271296	60.283333
40.863121	-0.054049	60.300000
40.867173	-0.440272	60.316667
38.463757	0.246277	60.333333
38.949018	0.070363	60.350000
37.669157	0.153626	60.366667
36.228676	0.488557	60.383333
36.874555	0.061222	60.400000
36.236521	0.103077	60.416667
36.401062	-0.340814	60.433333
36.084264	-0.800958	60.450000
33.199380	0.062322	60.466667
33.363791	-0.188614	60.483333
31.120735	0.632452	60.500000
31.445507	0.515156	60.516667
32.572983	-0.279773	60.533333
30.490673	0.098520	60.550000
30.815574	-0.210767	60.566667
29.856689	-0.242647	60.583333
28.255718	0.152083	60.600000
28.741108	-0.215622	60.616667
25.695734	0.707142	60.633333
27.786016	-0.246998	60.650000
26.024685	0.015164	60.666667
25.707628	-0.058959	60.683333
25.069720	-0.207020	60.700000
23.789728	0.071004	60.716667
23.151693	0.114453	60.733333
23.316103	-0.135343	60.750000
21.233792	0.245188	60.766667
22.521628	-0.415078	60.783333
20.599806	-0.092826	60.800000
20.282749	-0.166266	60.816667
19.644713	-0.122310	60.833333
17.722763	0.391056	60.850000
18.368769	-0.224734	60.866667
17.088776	0.054158	60.883333
16.771718	-0.018906	60.900000
16.454788	-0.282197	60.916667
15.014306	0.055634	60.933333
15.660311	-0.559336	60.950000
13.738488	-0.235262	60.966667
12.779346	0.116797	60.983333
12.783393	-0.262987	61.000000
10.700827	0.499828	61.016667
12.630618	-0.394113	61.033333
10.708795	-0.069382	61.050000
9.428801	0.210446	61.066667
10.556273	-0.579385	61.083333
8.313344	0.052736	61.100000
8.959348	-0.560697	61.116667
7.037397	-0.045733	61.133333
4.794341	0.775866	61.150000
6.403154	-0.000183	61.166667
4.641692	0.456241	61.183333
6.411120	-0.567411	61.200000
5.131379	-0.664589	61.216667
3.530407	-0.266452	61.233333
3.052985	-0.467741	61.250000
0.809929	0.353963	61.266667
0.492870	0.282766	61.283333
0.817768	-0.023148	61.300000
-0.943694	0.434034	61.316667
