Thu Nov 07 15:45:54 2013

Number of Points = 4883
Depth (nm)	Load (µN)	Time (s)
-5.297955	-1.091977	0.000000
-6.417535	-0.491364	0.016667
-6.253073	-0.550041	0.033333
-6.088612	-0.608719	0.050000
-6.405745	-0.301439	0.066667
-5.278348	-0.712174	0.083333
-5.595355	-0.594821	0.100000
-6.233339	-0.360115	0.116667
-5.266432	-0.712174	0.133333
-5.743927	-0.536145	0.150000
-4.777019	-0.888203	0.166667
-5.415004	-0.653497	0.183333
-6.053116	-0.228806	0.200000
-5.407187	-0.463509	0.216667
-6.045299	-0.038762	0.233333
-5.078519	-0.200706	0.250000
-4.432589	-0.435403	0.266667
-4.428490	-0.625512	0.283333
-4.103539	-0.742862	0.300000
-4.902013	-0.449487	0.316667
-4.737679	-0.318055	0.333333
-4.733707	-0.318055	0.350000
-4.729734	-0.318055	0.366667
-4.404911	-0.245235	0.383333
-3.758982	-0.479929	0.400000
-3.915499	-0.421256	0.416667
-3.911527	-0.421256	0.433333
-4.389022	-0.245235	0.450000
-4.064071	-0.362582	0.466667
-4.060226	-0.172355	0.483333
-3.735276	-0.289700	0.500000
-3.570942	-0.158085	0.516667
-3.727331	-0.289700	0.533333
-3.562870	-0.348373	0.550000
-3.558897	-0.348373	0.566667
-3.555053	-0.158085	0.583333
-3.390591	-0.216757	0.600000
-3.386746	-0.026411	0.616667
-3.061796	-0.143753	0.633333
-3.218313	-0.085082	0.650000
-3.214340	-0.085082	0.666667
-2.729028	-0.070687	0.683333
-2.564567	-0.129358	0.700000
-2.881573	-0.012017	0.716667
-2.717111	-0.070687	0.733333
-3.034245	0.237118	0.750000
-2.388316	0.002440	0.766667
-2.384344	0.002440	0.783333
-2.540861	0.061109	0.800000
-2.537016	0.251635	0.816667
-2.051576	0.075628	0.833333
-2.208093	0.134297	0.850000
-1.883270	0.207545	0.866667
-1.718809	0.148877	0.883333
-2.035815	0.266213	0.900000
-2.192332	0.324882	0.916667
-2.027998	0.456858	0.933333
-1.863664	0.588893	0.950000
-1.538714	0.471560	0.966667
-1.534869	0.662323	0.983333
-1.209791	0.354226	1.000000
-1.526925	0.662323	1.016667
-1.362463	0.603657	1.033333
-1.679597	0.911809	1.050000
-1.194157	0.735813	1.066667
-0.708717	0.559818	1.083333
-0.865234	0.618483	1.100000
-0.861390	0.809365	1.116667
-0.696928	0.750701	1.133333
-0.853445	0.809365	1.150000
-0.849601	1.000306	1.166667
-0.845629	1.000306	1.183333
-0.520678	0.882978	1.200000
-0.516834	1.073979	1.216667
-0.512990	1.265037	1.233333
-0.348528	1.206375	1.250000
-0.505045	1.265037	1.266667
-0.180222	1.338831	1.283333
-0.015761	1.280170	1.300000
0.148701	1.221508	1.316667
0.313034	1.354026	1.333333
0.317006	1.354026	1.350000
0.000000	1.471347	1.366667
0.164205	1.795218	1.383333
0.649132	2.385010	1.400000
1.455294	2.474972	1.416667
1.619370	2.991620	1.433333
2.425402	3.274196	1.450000
2.749967	3.733263	1.466667
3.074402	4.385279	1.483333
3.398837	5.038239	1.500000
4.204868	5.323340	1.516667
4.850280	5.860690	1.533333
5.495691	6.398997	1.550000
5.820253	6.861987	1.566667
6.626282	7.149622	1.583333
6.629865	7.730939	1.600000
7.435763	8.213725	1.616667
7.760324	8.679035	1.633333
8.566221	9.163501	1.650000
9.372248	9.454212	1.666667
9.536318	9.979926	1.683333
9.700257	10.701238	1.700000
10.345663	11.247666	1.716667
10.830579	11.853655	1.733333
11.636604	12.147614	1.750000
12.282140	12.500721	1.766667
12.767054	13.109101	1.783333
13.412720	13.267159	1.800000
13.897765	13.680486	1.816667
14.382810	14.094351	1.833333
14.707365	14.567343	1.850000
15.031920	15.040869	1.866667
15.677453	15.397761	1.883333
16.162364	16.011151	1.900000
16.968518	16.113175	1.916667
17.453560	16.530273	1.933333
17.617624	17.065060	1.950000
18.263023	17.622741	1.966667
18.427086	18.158769	1.983333
19.072483	18.718119	2.000000
19.718013	19.079696	2.016667
20.363542	19.441817	2.033333
21.009071	19.804481	2.050000
21.494244	20.027040	2.066667
21.818794	20.507721	2.083333
22.303833	20.930383	2.100000
22.467759	21.670421	2.116667
23.434265	21.918690	2.133333
23.919168	22.543299	2.150000
24.564829	22.709603	2.166667
24.889377	23.193681	2.183333
25.535037	23.360593	2.200000
25.698960	24.104905	2.216667
26.504975	24.414988	2.233333
26.829656	24.700058	2.250000
27.475180	25.069581	2.266667
28.120704	25.439648	2.283333
28.445385	25.725679	2.300000
29.090908	26.096651	2.316667
29.576077	26.324760	2.333333
30.061246	26.553112	2.350000
30.385791	27.042389	2.366667
30.870959	27.271344	2.383333
31.355856	27.905521	2.400000
31.680400	28.396406	2.416667
32.486410	28.712301	2.433333
32.971578	28.942705	2.450000
33.777587	29.259514	2.466667
34.102266	29.549028	2.483333
34.587433	29.780281	2.500000
34.911974	30.273861	2.516667
35.557493	30.650984	2.533333
35.882171	30.941698	2.550000
36.206574	31.640827	2.566667
37.012582	31.961084	2.583333
37.497611	32.398862	2.600000
37.982776	32.632529	2.616667
38.628431	32.807956	2.633333
38.792480	33.363962	2.650000
39.277370	34.008664	2.666667
39.762260	34.654319	2.683333
40.407775	35.036859	2.700000
41.053291	35.419943	2.716667
41.538455	35.656145	2.733333
42.023480	36.098603	2.750000
42.508505	36.541600	2.766667
43.154158	36.720308	2.783333
43.478832	37.016183	2.800000
43.803367	37.518901	2.816667
44.448880	37.905244	2.833333
44.933904	38.350584	2.850000
45.579416	38.738013	2.866667
46.064578	38.977119	2.883333
46.549601	39.423903	2.900000
46.874134	39.929670	2.916667
47.198528	40.643818	2.933333
47.844038	41.033956	2.950000
48.168431	41.749768	2.966667
48.974290	42.291233	2.983333
49.459450	42.533112	3.000000
50.265588	42.658379	3.016667
50.590259	42.959174	3.033333
51.235907	43.143360	3.050000
51.560437	43.653791	3.066667
51.885107	43.955428	3.083333
52.370126	44.408334	3.100000
53.015633	44.803363	3.116667
53.500511	45.467212	3.133333
53.985528	45.921917	3.150000
54.470545	46.377162	3.166667
54.955562	46.832947	3.183333
55.440578	47.289272	3.200000
55.925735	47.535387	3.216667
56.250121	48.261939	3.233333
56.895483	48.872649	3.250000
57.540987	49.272919	3.266667
58.186632	49.462215	3.283333
58.671788	49.710146	3.300000
59.156802	50.170078	3.316667
59.641958	50.418615	3.333333
59.966624	50.725779	3.350000
60.451637	51.186974	3.366667
61.097281	51.377980	3.383333
61.421805	51.898456	3.400000
61.746185	52.632173	3.416667
62.552175	52.978785	3.433333
62.876697	53.501051	3.450000
63.682829	53.635517	3.466667
63.846718	54.430464	3.483333
64.331729	54.895981	3.500000
64.977084	55.517510	3.516667
65.462237	55.770279	3.533333
66.107735	56.179067	3.550000
66.432398	56.490795	3.566667
66.917263	57.173321	3.583333
67.402271	57.642082	3.600000
67.887279	58.111383	3.616667
68.372286	58.581225	3.633333
69.178271	58.934932	3.650000
69.502788	59.464195	3.666667
69.987939	59.720112	3.683333
70.633434	60.133610	3.700000
71.118584	60.390135	3.716667
71.603589	60.862870	3.733333
71.928250	61.178327	3.750000
72.413110	61.868283	3.766667
72.898114	62.342636	3.783333
73.382973	63.034265	3.800000
74.028465	63.451564	3.816667
74.352979	63.986031	3.833333
74.998325	64.621743	3.850000
75.483328	65.099158	3.866667
76.128819	65.518811	3.883333
76.613820	65.997310	3.900000
77.098967	66.258312	3.916667
77.583968	66.737715	3.933333
77.908480	67.275951	3.950000
78.553822	67.916713	3.966667
79.038822	68.397916	3.983333
79.363332	68.937943	4.000000

80.008820	69.361944	4.016667
80.493672	70.064109	4.033333
80.818181	70.605929	4.050000
81.302884	71.529575	4.066667
81.787881	72.014554	4.083333
82.272730	72.720299	4.100000
82.917920	73.589257	4.116667
83.403064	73.855696	4.133333
83.887911	74.564073	4.150000
84.854373	74.877533	4.166667
85.018538	75.261570	4.183333
85.503532	75.750697	4.200000
85.988675	76.018835	4.216667
86.473520	76.730573	4.233333
86.958662	76.999438	4.250000
87.283017	77.770852	4.266667
87.767712	78.707337	4.283333
88.413043	79.364425	4.300000
88.897886	80.080703	4.316667
89.543366	80.516646	4.333333
89.707229	81.351043	4.350000
90.352558	82.011730	4.366667
90.997887	82.673379	4.383333
91.322387	83.228458	4.400000
91.967865	83.667657	4.416667
92.131575	84.730693	4.433333
92.776901	85.395937	4.450000
93.582715	86.003946	4.466667
93.907213	86.562430	4.483333
94.552689	87.005066	4.500000
94.716546	87.848248	4.516667
95.361869	88.517816	4.533333
95.846703	89.246529	4.550000
96.170744	90.486830	4.566667
96.655577	91.217923	4.583333
97.300745	92.118592	4.600000
97.946065	92.793672	4.616667
98.430895	93.527876	4.633333
98.755083	94.548749	4.650000
99.561042	94.940998	4.666667
100.045871	95.678073	4.683333
100.530851	96.187896	4.700000
101.015678	96.926647	4.716667
101.340169	97.495873	4.733333
101.824842	98.465154	4.750000
102.309667	99.206769	4.766667
102.794338	100.178730	4.783333
103.600293	100.576616	4.800000
103.764138	101.437353	4.816667
104.248807	102.412891	4.833333
104.733474	103.389917	4.850000
105.218141	104.368430	4.866667
105.863450	105.059343	4.883333
106.508913	105.520057	4.900000
106.993887	106.039419	4.916667
107.639350	106.501225	4.933333
107.963679	107.311465	4.950000
108.448652	107.832631	4.966667
108.933469	108.586449	4.983333
109.418285	109.341225	5.000000
109.903257	109.864373	5.016667
110.388072	110.620825	5.033333
110.872731	111.611290	5.050000
111.196899	112.661311	5.066667
111.842045	113.596684	5.083333
112.327013	114.123790	5.100000
112.651179	115.177674	5.116667
113.456811	116.058881	5.133333
113.781132	116.881028	5.150000
114.586919	117.529992	5.166667
114.911554	117.883859	5.183333
115.557009	118.357073	5.200000
115.881329	119.182330	5.216667
116.526783	119.656812	5.233333
116.851101	120.483741	5.250000
117.656885	121.137541	5.266667
118.142007	121.435794	5.283333
118.466482	122.028685	5.300000
118.951287	122.800702	5.316667
119.275602	123.631691	5.333333
119.599758	124.700767	5.350000
120.405220	125.834802	5.366667
120.729374	126.907145	5.383333
121.856130	127.452911	5.400000
122.180920	127.575008	5.416667
122.665880	128.115647	5.433333
122.829862	128.772806	5.450000
123.154012	129.849924	5.466667
123.959628	130.754584	5.483333
124.605075	131.240127	5.500000
125.089872	132.023641	5.516667
125.735478	132.270830	5.533333
126.220596	132.576236	5.550000
126.544903	133.419646	5.566667
126.869209	134.264005	5.583333
127.674981	134.935442	5.600000
127.999609	135.300503	5.616667
128.484564	135.848547	5.633333
128.969518	136.397134	5.650000
129.454311	137.187375	5.666667
129.939103	137.978573	5.683333
130.423894	138.770730	5.700000
131.069335	139.264088	5.716667
131.393637	140.115859	5.733333
132.038915	140.852725	5.750000
132.684355	141.348082	5.766667
133.169144	142.144563	5.783333
133.493768	142.514202	5.800000
133.978556	143.312122	5.816667
134.463505	143.867756	5.833333
134.948455	144.423933	5.850000
135.593566	145.410007	5.866667
135.918026	146.025533	5.883333
136.563463	146.525797	5.900000
137.369551	146.724516	5.916667
137.694338	146.852919	5.933333
137.857980	148.016896	5.950000
138.342763	148.821784	5.966667
138.827545	149.627630	5.983333
139.151673	150.737574	6.000000
139.957267	151.675375	6.016667
140.602536	152.426702	6.033333
141.087480	152.990832	6.050000
141.411935	153.613370	6.066667
142.378344	154.004997	6.083333
142.702798	154.628623	6.100000
143.188072	154.701615	6.116667
143.673179	155.021361	6.133333
143.836979	155.950852	6.150000
144.642898	156.402728	6.166667
144.967351	157.028700	6.183333
145.452126	157.844884	6.200000
146.257878	158.546350	6.216667
146.422007	158.984204	6.233333
147.067103	159.993130	6.250000
147.391387	160.870746	6.266667
147.715504	161.998015	6.283333
148.360430	163.260185	6.300000
148.845033	164.332908	6.316667
149.650948	164.792267	6.333333
150.136051	165.118083	6.350000
150.460499	165.751782	6.366667
151.266412	166.212612	6.383333
151.269882	166.962993	6.400000
152.075458	167.925828	6.416667
152.881538	168.138008	6.433333
153.045663	168.581603	6.450000
153.530429	169.411719	6.466667
154.015531	169.740461	6.483333
154.500296	170.572023	6.500000
154.985060	171.404544	6.516667
155.309335	172.295797	6.533333
155.793929	173.382318	6.550000
156.439180	174.160187	6.566667
156.923941	174.996783	6.583333
157.569191	175.776583	6.600000
158.214779	176.051338	6.616667
158.699878	176.384095	6.633333
159.024488	176.774848	6.650000
159.348759	177.672570	6.666667
159.672689	179.078678	6.683333
160.157447	179.921040	6.700000
160.641863	181.272977	6.716667
161.447767	181.747705	6.733333
161.772205	182.396161	6.750000
162.417448	183.184646	6.766667
162.902203	184.031815	6.783333
163.226468	184.937656	6.800000
163.871881	185.473390	6.816667
164.356634	186.323202	6.833333
165.162534	186.802511	6.850000
165.487141	187.199293	6.866667
165.811403	188.108974	6.883333
166.456814	188.647628	6.900000
166.781076	189.558985	6.916667
167.105165	190.728363	6.933333
167.750229	191.783866	6.950000
168.234805	192.898546	6.966667
168.719552	193.756762	6.983333
169.204125	194.874132	7.000000
169.688524	196.251542	7.016667
170.333931	196.796912	7.033333
170.818502	197.918470	7.050000
171.303419	198.522946	7.066667
171.948824	199.070321	7.083333
172.594229	199.618248	7.100000
172.918830	200.022265	7.116667
173.082595	201.003930	7.133333
173.727650	202.073857	7.150000
174.212390	202.942407	7.166667
174.857443	204.015039	7.183333
175.342357	204.624770	7.200000
175.345454	205.930262	7.216667
175.990330	207.268358	7.233333
176.474715	208.666210	7.250000
177.119588	210.008611	7.266667
177.764811	210.827956	7.283333
178.410033	211.648271	7.300000
179.055255	212.469554	7.316667
179.379852	212.880560	7.333333
179.864761	213.497522	7.350000
180.509981	214.320987	7.366667
180.834400	214.996791	7.383333
181.479619	215.821948	7.400000
182.125369	215.855696	7.416667
182.449964	216.268766	7.433333
182.774382	216.946384	7.450000
183.098445	218.153683	7.466667
183.743307	219.512325	7.483333
184.227857	220.665355	7.500000
184.391250	222.200557	7.516667
185.517930	222.860834	7.533333
186.002833	223.486134	7.550000
186.166402	224.759608	7.566667
186.651125	225.652906	7.583333
187.296158	226.756501	7.600000
187.941369	227.594453	7.616667
188.426448	227.956285	7.633333
188.750681	228.910704	7.650000
189.396069	229.483392	7.666667
189.720301	230.439489	7.683333
190.525997	231.224064	7.700000
190.689739	232.239569	7.716667
191.174277	233.409684	7.733333
191.658814	234.581294	7.750000
191.982862	235.811872	7.766667
192.948681	237.083647	7.783333
193.433577	237.720354	7.800000
193.918472	238.357607	7.816667
194.403367	238.995405	7.833333
194.567103	240.019009	7.850000
195.372430	241.355126	7.866667
195.857686	241.453560	7.883333
196.342397	242.364908	7.900000
196.987778	242.948536	7.916667
197.312182	243.647584	7.933333
197.957380	244.503915	7.950000
198.281783	245.204226	7.966667
198.605821	246.449173	7.983333
199.250835	247.580773	8.000000
199.735360	248.771291	8.016667
200.380554	249.632931	8.033333
200.865260	250.552945	8.050000
201.349965	251.473921	8.066667
201.834853	252.122240	8.083333
202.480228	252.713713	8.100000
202.965115	253.363127	8.116667
203.289330	254.344629	8.133333
203.613360	255.601538	8.150000
204.258366	256.745186	8.166667
205.064043	257.557926	8.183333
205.549112	257.935980	8.200000
206.034180	258.314282	8.216667
206.358576	259.025601	8.233333
207.003948	259.622743	8.250000
207.328158	260.610972	8.266667
207.491694	261.933622	8.283333
208.296997	263.304851	8.300000
208.781693	264.239323	8.316667
209.266388	265.174759	8.333333
210.072245	265.719311	8.350000
210.396637	266.436402	8.366667
210.881331	267.374256	8.383333
211.205535	268.370391	8.400000
211.529367	269.923694	8.416667
212.174173	271.364522	8.433333
212.819539	271.971144	8.450000
213.464904	272.578319	8.466667
214.270944	272.849721	8.483333
214.595519	273.293258	8.500000
214.919907	274.016311	8.516667
215.244107	275.019412	8.533333
216.049771	275.851624	8.550000
216.374158	276.576663	8.566667
216.858844	277.525131	8.583333
217.504206	278.136891	8.600000
217.668103	278.921006	8.616667
218.152600	280.152702	8.633333
218.958261	280.990268	8.650000
219.442944	281.943322	8.666667
219.927816	282.615807	8.683333
220.091333	283.966807	8.700000
220.575636	285.486927	8.716667
221.220616	286.669488	8.733333
222.187140	286.891125	8.750000
222.351032	287.681879	8.766667
222.835711	288.641678	8.783333
222.999223	290.000128	8.800000
223.965175	291.074000	8.816667
224.289554	291.810590	8.833333
224.934718	292.717281	8.850000
225.259096	293.455137	8.866667
225.904260	294.363525	8.883333
226.228446	295.387269	8.900000
227.034096	296.240408	8.916667
227.197793	297.323257	8.933333
228.003824	297.607729	8.950000
228.167329	298.977531	8.966667
228.812297	300.177304	8.983333
229.296967	301.149642	9.000000
230.102614	302.008626	9.016667
230.587859	302.123499	9.033333
230.912232	302.868592	9.050000
231.396900	303.843841	9.066667
231.881376	305.107118	9.083333
232.205555	306.141674	9.100000
232.850710	307.062914	9.116667
233.174887	308.099391	9.133333
233.819655	309.598772	9.150000
234.304319	310.580523	9.166667
234.788983	311.563237	9.183333
235.594622	312.432696	9.200000
235.918990	313.185372	9.216667
236.564528	313.535177	9.233333
237.209871	314.174561	9.250000
237.213262	315.042893	9.266667
237.697728	316.320006	9.283333
238.182388	317.308523	9.300000
238.666853	318.588339	9.316667
239.472487	319.464869	9.333333
239.635974	320.861542	9.350000
240.280924	322.088492	9.366667
240.765580	323.082553	9.383333
241.250235	324.077579	9.400000
242.055670	325.251404	9.416667
242.380228	325.721361	9.433333
242.543709	327.125491	9.450000
243.509826	327.953257	9.466667
243.673502	329.067186	9.483333
244.479130	329.953945	9.500000
244.803489	330.719455	9.516667
245.448628	331.664949	9.533333
246.094159	332.024023	9.550000
246.579006	332.734155	9.566667
246.903363	333.501848	9.583333
247.388012	334.507277	9.600000
247.711974	335.865176	9.616667
248.196621	336.872770	9.633333
248.680872	338.471457	9.650000
249.486494	339.367488	9.666667
249.971336	340.082893	9.683333
250.295492	341.151575	9.700000
250.780136	342.164240	9.716667
251.104092	343.531122	9.733333
251.748825	345.082210	9.750000
252.393954	346.041532	9.766667
252.878794	346.761663	9.783333
253.684609	347.368446	9.800000
253.848671	347.906155	9.816667
254.333310	348.925348	9.833333
254.817949	349.945508	9.850000
255.141899	351.321694	9.866667
255.786824	352.585520	9.883333
256.271260	353.907778	9.900000
256.755696	355.231536	9.916667
257.561507	355.844401	9.933333
257.725366	356.685453	9.950000
258.370287	357.955627	9.966667
258.855120	358.684320	9.983333
259.179064	360.070700	10.000000
260.145361	360.630185	10.016667
260.309217	361.474658	10.033333
260.954336	362.449776	10.050000
261.117788	363.897539	10.066667
261.762703	365.176178	10.083333
262.728998	365.739379	10.100000
262.893256	365.984101	10.116667
263.377884	367.020460	10.133333
263.862511	368.057785	10.150000
264.025756	369.814546	10.166667
264.991440	371.289239	10.183333
265.315779	372.084244	10.200000
265.960891	373.069320	10.216667
266.606409	373.448569	10.233333
266.930951	373.941722	10.250000
267.254882	375.346132	10.266667
267.899788	376.638404	10.283333
268.063433	377.798291	10.300000
268.868621	379.341094	10.316667
269.353445	380.084915	10.333333
269.998552	381.077530	10.350000
270.483784	381.212253	10.366667
270.968402	382.262886	10.383333
271.453429	382.703388	10.400000
271.617070	383.869040	10.416667
272.261970	385.171308	10.433333
272.906868	386.475092	10.450000
273.230995	387.587324	10.466667
274.036380	388.837069	10.483333
274.360711	389.644402	10.500000
274.845324	390.702773	10.516667
275.330142	391.454628	10.533333
275.814342	393.130200	10.550000
276.298952	394.191712	10.566667
276.944257	394.889205	10.583333
277.107684	396.374362	10.600000
277.591879	398.056414	10.616667
278.076280	399.431415	10.633333
278.881448	401.004017	10.650000
279.526750	401.706088	10.666667
280.011771	402.155547	10.683333
280.496792	402.605255	10.700000
280.660213	404.099086	10.716667
281.305097	405.424351	10.733333
281.789701	406.496989	10.750000
282.434791	407.513924	10.766667
282.759114	408.333934	10.783333
283.243716	409.409238	10.800000
283.728108	410.797222	10.816667
284.373196	411.818048	10.833333
284.857586	413.208748	10.850000
285.663579	413.550202	10.866667
285.827411	414.431030	10.883333
286.151312	415.881390	10.900000
286.796396	416.906841	10.916667
287.601759	418.190031	10.933333
287.765589	419.073917	10.950000
288.571370	419.731876	10.966667
288.735199	420.616848	10.983333
289.380071	421.960911	11.000000
289.703965	423.419689	11.016667
290.509323	424.710178	11.033333
290.673150	425.598385	11.050000
291.478294	427.206658	11.066667
291.963307	427.667796	11.083333
292.447686	429.076312	11.100000
292.771999	429.910830	11.116667
293.417075	430.948946	11.133333
293.901663	432.044599	11.150000
294.386250	433.141222	11.166667
294.710349	434.295363	11.183333
295.355210	435.654573	11.200000
295.839796	436.754340	11.216667
296.163680	438.229344	11.233333
296.969452	438.900253	11.250000
297.454248	439.684778	11.266667
297.938831	440.788188	11.283333
298.423627	441.573994	11.300000
298.747721	442.735614	11.316667
299.071172	444.855511	11.333333
299.716240	445.906766	11.350000
300.361093	447.278704	11.366667
301.167075	447.635843	11.383333
301.491595	448.162700	11.400000
302.297577	448.520351	11.416667
302.300906	449.480913	11.433333
302.785268	450.913603	11.450000
303.430547	451.649707	11.466667
303.914907	453.084819	11.483333
304.238779	454.577893	11.500000
304.723137	456.016010	11.516667
305.047007	457.512076	11.533333
305.852339	458.840320	11.550000
306.336695	460.282959	11.566667
306.981969	461.025124	11.583333
307.306268	461.880695	11.600000
307.630134	463.383079	11.616667
308.274757	465.097654	11.633333
308.919596	466.490525	11.650000
309.725573	466.856335	11.666667
310.050303	467.067537	11.683333
310.535304	467.546531	11.700000
310.859600	468.406474	11.716667
311.183461	469.916103	11.733333
311.828078	471.639421	11.750000
312.473348	472.389145	11.766667
312.636718	473.959352	11.783333
313.281551	475.361951	11.800000
313.766113	476.496396	11.816667
314.411162	477.575458	11.833333
314.895503	479.038357	11.850000
315.219576	480.232296	11.866667
315.864403	481.641569	11.883333
316.509669	482.397733	11.900000
316.833739	483.594573	11.916667
317.478784	484.679732	11.933333
317.963560	485.494245	11.950000
318.287849	486.365622	11.966667
318.772184	487.837895	11.983333
319.256739	488.983018	12.000000
319.901561	490.401712	12.016667
320.386114	491.549019	12.033333
320.870667	492.697297	12.050000
321.354998	494.176217	12.066667
321.678840	495.712916	12.083333
322.163170	497.194843	12.100000
322.807985	498.622020	12.116667
323.453022	499.719853	12.133333
323.937792	500.543872	12.150000
324.583271	500.981031	12.166667
325.068040	501.805978	12.183333
325.231834	502.743954	12.200000
325.876646	504.177230	12.216667
326.360969	505.668252	12.233333
326.524316	507.273220	12.250000
327.490100	508.598606	12.266667
327.814378	509.484514	12.283333
328.138210	511.037173	12.300000
329.104215	512.033110	12.316667
329.428715	512.587649	12.333333
330.073967	513.363727	12.350000
330.559179	513.528897	12.366667
330.722744	514.808258	12.383333
331.206835	516.644819	12.400000
331.690925	518.483542	12.416667
332.657150	519.150977	12.433333
332.660224	520.491054	12.450000
333.144311	522.334480	12.466667
333.628622	523.844248	12.483333
334.112706	525.691642	12.500000
335.078477	527.036335	12.516667
335.242486	527.653224	12.533333
335.887280	529.112315	12.550000
336.371812	530.291907	12.566667
336.856569	531.135155	12.583333
337.501813	531.922849	12.600000
337.825856	533.160985	12.616667
338.310385	534.343985	12.633333
338.794914	535.527957	12.650000
339.439703	536.995268	12.666667
339.763516	538.576256	12.683333
340.569018	539.651477	12.700000
341.053998	540.161426	12.716667
341.217548	541.462397	12.733333
341.701618	543.331551	12.750000
342.346402	544.806757	12.766667
342.830925	545.999228	12.783333
343.475707	547.477173	12.800000
343.799969	548.387084	12.816667
344.444978	549.526442	12.833333
344.929270	551.064065	12.850000
345.414018	551.920143	12.866667
345.738050	553.174463	12.883333
346.222339	554.715713	12.900000
347.027603	556.146476	12.916667
347.512349	557.005670	12.933333
347.997325	557.522783	12.950000
348.160866	558.837692	12.966667
348.484664	560.440681	12.983333
349.450181	562.164745	13.000000
349.934694	563.371317	13.016667
350.580156	563.835059	13.033333
350.904181	565.099061	13.050000
351.228205	566.364025	13.066667
351.712486	567.918609	13.083333
352.357484	569.073859	13.100000
352.841994	570.286027	13.116667
353.004834	572.647346	13.133333
353.810085	574.096125	13.150000
354.455080	575.256255	13.166667
355.100306	576.071090	13.183333
355.585276	576.595989	13.200000
355.909527	577.523565	13.216667
356.233313	579.145264	13.233333
356.556865	581.115633	13.250000
357.683318	582.113743	13.266667
357.525871	583.559880	13.283333
358.330882	585.367685	13.300000
358.976104	586.188616	13.316667
359.139396	587.874607	13.333333
359.784150	589.394529	13.350000
360.107928	591.027663	13.366667
360.912933	592.844227	13.383333
361.397430	594.075102	13.400000
361.881927	595.306949	13.416667
362.526910	596.483952	13.433333
363.011875	597.017007	13.450000
363.175396	598.362923	13.466667
363.980630	599.837393	13.483333
364.144149	601.185470	13.500000
364.949381	602.662689	13.516667
365.434109	603.549759	13.533333
365.758113	604.844942	13.550000
366.242368	606.437389	13.566667
366.887346	607.623204	13.583333
367.211112	609.274143	13.600000
367.855851	610.815070	13.616667
368.179852	612.115808	13.633333
368.663628	614.422288	13.650000
369.147877	616.023801	13.666667
369.631651	618.335327	13.683333
370.437110	619.474447	13.700000
370.921593	620.725988	13.716667
371.727526	621.157142	13.733333
372.051997	621.755678	13.750000
372.376230	622.709645	13.766667
373.020961	624.263674	13.783333
373.344955	625.574822	13.800000
373.829435	626.831250	13.816667
374.313915	628.088652	13.833333
374.958881	629.291357	13.850000
375.443598	630.194032	13.866667
375.607101	631.565448	13.883333
376.251587	633.485223	13.900000
376.896311	635.049605	13.916667
377.059572	636.782434	13.933333
377.704054	638.708019	13.950000
378.348534	640.635789	13.966667
378.993735	641.489255	13.983333
379.317719	642.813463	14.000000
379.641222	644.857186	14.016667
380.767882	645.546252	14.033333
380.771132	646.625079	14.050000
381.576335	648.146356	14.066667
381.901040	648.395208	14.083333
382.064051	650.501048	14.100000
382.869251	652.025995	14.116667
383.353960	652.941702	14.133333
383.677455	654.997019	14.150000
384.322165	656.581804	14.166667
384.806387	658.223662	14.183333
385.290851	659.504914	14.200000
385.935801	660.731607	14.216667
386.420020	662.377414	14.233333
386.904725	663.298998	14.250000
387.067968	665.058264	14.266667
387.712429	667.015926	14.283333
388.357375	668.248247	14.300000
389.002077	669.845529	14.316667
389.486779	670.771338	14.333333
389.489775	672.228548	14.350000
390.294472	674.503563	14.366667
390.939415	675.741518	14.383333
391.423870	677.035923	14.400000
391.908324	678.331303	14.416667
392.072048	679.372793	14.433333
392.716253	681.712626	14.450000
393.200459	683.377830	14.466667
393.845151	684.989121	14.483333
394.329848	685.923375	14.500000
394.814051	687.592531	14.516667
395.137767	689.318609	14.533333
395.942943	690.879983	14.550000
396.266656	692.609082	14.566667
396.911343	694.228907	14.583333
397.396036	695.168307	14.600000
397.880481	696.477080	14.616667
398.364925	697.786829	14.633333
398.849122	699.466911	14.650000
399.333317	701.148507	14.666667
399.657025	702.886967	14.683333
400.301705	704.516243	14.700000
401.267855	705.295328	14.716667
401.110595	706.462326	14.733333
401.755273	708.094968	14.750000
402.400199	709.357926	14.766667
402.563166	711.530771	14.783333
403.368328	713.112675	14.800000
403.692028	714.862012	14.816667
404.176214	716.557560	14.833333
404.981623	717.771353	14.850000
405.144833	719.580198	14.866667
405.949990	721.169455	14.883333
406.434673	722.123751	14.900000
406.758367	723.881249	14.916667
407.403035	725.529750	14.933333
407.726727	727.290264	14.950000
408.371393	728.941809	14.966667
408.856073	729.900332	14.983333
409.500988	731.179229	15.000000
409.824677	732.944890	15.016667
410.309104	734.281205	15.033333
411.114504	735.508086	15.050000
411.438694	736.525505	15.066667
411.601641	738.727559	15.083333
412.567778	739.525858	15.100000
412.409749	741.841522	15.116667
413.214387	744.205584	15.133333
413.538068	745.982709	15.150000
414.342703	748.351875	15.166667
414.987862	749.265734	15.183333
415.312048	750.290440	15.200000
415.956953	751.584053	15.216667
416.280884	752.988914	15.233333
416.443819	755.208256	15.250000
417.409187	757.154178	15.266667
417.893857	758.127974	15.283333
418.217276	760.297627	15.300000
419.022663	761.543256	15.316667
419.507586	762.138902	15.333333
419.831512	763.551285	15.350000
420.315924	764.909557	15.366667
420.318364	767.196603	15.383333
421.122469	770.355874	15.400000
421.927851	771.608656	15.416667
422.412260	772.972525	15.433333
422.896924	773.954790	15.450000
423.381587	774.937612	15.466667
423.705250	776.741963	15.483333
424.028656	778.931173	15.500000
424.833263	781.341293	15.516667
425.478411	782.272972	15.533333
425.963071	783.260213	15.550000
426.287245	784.303004	15.566667
426.771389	786.060534	15.583333
427.416020	787.764605	15.600000
427.900678	788.754799	15.616667
428.063588	791.011676	15.633333
428.868702	792.665057	15.650000
429.352842	794.429882	15.666667
429.676753	795.864812	15.683333
430.321377	797.577431	15.700000
430.805514	799.346509	15.716667
431.450137	801.062186	15.733333
431.774304	802.114294	15.750000
432.419184	803.444746	15.766667
432.903578	804.831091	15.783333
433.387970	806.218415	15.800000
433.711615	808.050001	15.816667
434.356233	809.773327	15.833333
434.680136	811.218942	15.850000
435.324752	812.945019	15.866667
435.808618	815.117080	15.883333
436.292745	816.901367	15.900000
436.777132	818.296983	15.916667
437.100770	820.138844	15.933333
437.745119	822.263337	15.950000
438.389466	824.390024	15.966667
438.713363	825.845575	15.983333
439.357970	827.584167	16.000000
440.003101	828.540380	16.016667
440.326996	829.998856	16.033333
440.650365	832.243167	16.050000
441.294968	833.987263	16.066667
441.939570	835.732893	16.083333
442.424212	836.748149	16.100000
443.069340	837.709204	16.116667
443.393495	838.780335	16.133333
443.717121	840.639768	16.150000
444.201233	842.445966	16.166667
444.845831	844.198951	16.183333
445.329940	846.008194	16.200000
445.814314	847.423852	16.216667
446.459174	848.785779	16.233333
446.944076	849.412407	16.250000
447.428448	850.830530	16.266667
447.591580	852.754968	16.283333
448.235641	855.309507	16.300000
448.719479	857.524910	16.316667
449.524820	858.839054	16.333333
450.170207	859.414506	16.350000
450.333867	860.551470	16.366667
450.657481	862.429391	16.383333
451.141580	864.254173	16.400000
451.624878	867.275320	16.416667
452.269462	869.049416	16.433333
452.593071	870.934277	16.450000
453.719379	872.148360	16.466667
453.883303	872.892303	16.483333
454.367664	874.326315	16.500000
454.851757	876.161152	16.516667
455.175362	878.052093	16.533333
455.819939	879.835386	16.550000
456.464516	881.620215	16.566667
456.788655	882.713675	16.583333
457.272743	884.555513	16.600000
457.756830	886.398872	16.616667
458.401403	888.189212	16.633333
458.886026	889.231432	16.650000
459.209355	891.535649	16.666667
459.854464	892.525006	16.683333
460.177790	894.832491	16.700000
460.661601	897.087633	16.716667
461.466924	898.428786	16.733333
461.951274	899.879923	16.750000
462.435353	901.736083	16.766667
462.759485	902.839614	16.783333
463.243562	904.698210	16.800000
464.048611	906.449406	16.816667
464.211713	908.419963	16.833333
465.017031	909.768810	16.850000
465.501919	910.416389	16.866667
465.825777	911.930057	16.883333
466.309849	913.796288	16.900000
466.794192	915.257716	16.916667
467.117230	917.994409	16.933333
467.761785	919.811093	16.950000
468.245580	922.091051	16.966667
469.050892	923.449074	16.983333
469.214258	925.025624	17.000000
469.859082	926.440009	17.016667
470.343419	927.909756	17.033333
470.827482	929.789089	17.050000
471.472304	931.206687	17.066667
471.796153	932.733971	17.083333
472.280213	934.617269	17.100000
473.085520	935.983742	17.116667
473.409916	936.694521	17.133333
473.733487	938.635514	17.150000
474.217269	940.934108	17.166667
474.701050	943.234881	17.183333
475.506628	944.196051	17.200000
475.669434	946.608700	17.216667
476.474735	947.983112	17.233333
476.477052	950.453641	17.250000
477.281522	953.067316	17.266667
477.926058	954.912814	17.283333
478.250173	956.042550	17.300000
478.894707	957.890506	17.316667
479.700557	958.445726	17.333333
479.864185	959.631544	17.350000
480.669757	960.601008	17.366667
480.672898	961.842146	17.383333
481.316873	964.523367	17.400000
481.801194	966.018117	17.416667
482.446000	967.459654	17.433333
482.930041	969.371348	17.450000
483.253874	970.923471	17.466667
483.737634	973.253474	17.483333
484.221673	975.169728	17.500000
484.544945	977.557886	17.516667
485.349674	979.785779	17.533333
485.673222	981.761343	17.550000
486.478229	983.576038	17.566667
487.284352	983.722669	17.583333
487.287765	984.557360	17.600000
487.931724	987.264204	17.616667
488.416314	988.355630	17.633333
488.900625	989.865834	17.650000
489.545981	990.486069	17.666667
489.709318	992.105938	17.683333
490.032579	994.510497	17.700000
490.676530	997.228438	17.716667
490.999788	999.637697	17.733333
492.125757	1001.358811	17.750000
492.128884	1002.619222	17.766667
492.612343	1005.400150	17.783333
493.256850	1007.288011	17.800000
493.740870	1009.231427	17.816667
494.546144	1010.646837	17.833333
494.709472	1012.279261	17.850000
495.193490	1014.226649	17.866667
495.999044	1015.223052	17.883333
496.322574	1017.226885	17.900000
497.127844	1018.647529	17.916667
497.130683	1020.339013	17.933333
497.614412	1022.716141	17.950000
498.258910	1024.617826	17.966667
498.581866	1027.476945	17.983333
499.547618	1028.850103	18.000000
499.871710	1030.015454	18.016667
500.034461	1032.509551	18.033333
500.999926	1034.311089	18.050000
501.162959	1036.383689	18.066667
501.807165	1038.721892	18.083333
502.451940	1040.210078	18.100000
503.096714	1041.699262	18.116667
503.421087	1042.444227	18.133333
503.744888	1044.042634	18.150000
504.389088	1046.388211	18.166667
504.873374	1047.935204	18.183333
505.196600	1050.392130	18.200000
506.001283	1052.689741	18.216667
506.325366	1053.866291	18.233333
506.648589	1056.328667	18.250000
507.293069	1058.256760	18.266667
507.455803	1060.776920	18.283333
508.420965	1063.030311	18.300000
508.583983	1065.124948	18.316667
509.388657	1067.436178	18.333333
509.712448	1069.049911	18.350000
510.357499	1070.126467	18.366667
510.841197	1072.550005	18.383333
511.486824	1072.766050	18.400000
511.488774	1075.784786	18.416667
512.614991	1077.135026	18.433333
512.457320	1078.916022	18.450000
513.261405	1082.104898	18.466667
513.744806	1084.972196	18.483333
514.228496	1087.409232	18.500000
514.873540	1088.494385	18.516667
515.036837	1090.174702	18.533333
515.680427	1093.430903	18.550000
516.485665	1094.899521	18.566667
516.488473	1096.637349	18.583333
517.453613	1098.924086	18.600000
517.777391	1100.557070	18.616667
518.421556	1102.954756	18.633333
519.066888	1103.611520	18.650000
519.551150	1105.193844	18.666667
520.035704	1106.341037	18.683333
520.520549	1107.052552	18.700000
520.522767	1109.670878	18.716667
521.327705	1111.586569	18.733333
521.490700	1113.718083	18.750000
522.295050	1116.511918	18.766667
522.779306	1118.102098	18.783333
523.102489	1120.623055	18.800000
523.907128	1122.985601	18.816667
524.230897	1124.633228	18.833333
525.035827	1126.560353	18.850000
525.199403	1127.824387	18.866667
525.522285	1130.793736	18.883333
526.326918	1133.165506	18.900000
526.650387	1135.259542	18.916667
527.454722	1138.076115	18.933333
528.260828	1138.249617	18.950000
528.424400	1139.518939	18.966667
529.230505	1139.692723	18.983333
529.233295	1141.457528	19.000000
529.556464	1143.999637	19.016667
530.039525	1147.374678	19.033333
530.683365	1150.257569	19.050000
531.327797	1152.257579	19.066667
531.812039	1153.869378	19.083333
532.295984	1155.925551	19.100000
532.940710	1157.486187	19.116667
532.942600	1160.593261	19.133333
533.907999	1162.494232	19.150000
534.070670	1165.108228	19.166667
534.874983	1167.956157	19.183333
535.519705	1169.523954	19.200000
536.004239	1170.700458	19.216667
536.488473	1172.323321	19.233333
536.973604	1172.609238	19.250000
537.136269	1175.232331	19.266667
537.941174	1177.197827	19.283333
538.264920	1178.877922	19.300000
539.230609	1180.345875	19.316667
539.233982	1181.240062	19.333333
539.396042	1184.765912	19.350000
540.360827	1187.581254	19.366667
540.844755	1189.662526	19.383333
541.328381	1192.194007	19.400000
541.973393	1193.327509	19.416667
542.297133	1195.017126	19.433333
543.102631	1196.098738	19.450000
543.426671	1197.340552	19.466667
543.910895	1198.979431	19.483333
544.395118	1200.619298	19.500000
544.718252	1203.213900	19.516667
545.362657	1205.253657	19.533333
545.847180	1206.446354	19.550000
546.331098	1208.541749	19.566667
546.815015	1210.638673	19.583333
546.977658	1213.295160	19.600000
547.460361	1217.204234	19.616667
548.265245	1219.201005	19.633333
548.748853	1221.758504	19.650000
549.393250	1223.811785	19.666667
549.877463	1225.466142	19.683333
550.200887	1227.628362	19.700000
551.006374	1228.724747	19.716667
551.169310	1230.942483	19.733333
551.974188	1232.949497	19.750000
552.137122	1235.170257	19.766667
553.102483	1237.127332	19.783333
553.587301	1237.878785	19.800000
553.911329	1239.139017	19.816667
554.395231	1241.258304	19.833333
554.718952	1242.976040	19.850000
555.042061	1245.607469	19.866667
555.685528	1249.048768	19.883333
556.008633	1251.685272	19.900000
556.813194	1254.165054	19.916667
557.297089	1256.295026	19.933333
557.780983	1258.426529	19.950000
558.585847	1260.453689	19.966667
559.070661	1261.212059	19.983333
559.555782	1261.511945	20.000000
559.879188	1263.700405	20.016667
560.202592	1265.890378	20.033333
560.846659	1268.435700	20.050000
561.170370	1270.169073	20.066667
562.135405	1272.612309	20.083333
562.298937	1273.940529	20.100000
562.461543	1276.651465	20.116667
563.266089	1279.153123	20.133333
563.749971	1281.301201	20.150000
563.911954	1284.942075	20.166667
564.876671	1287.860261	20.183333
565.360860	1289.551798	20.200000
566.166639	1290.213106	20.216667
566.651757	1290.517460	20.233333
566.654178	1292.832244	20.250000
567.459335	1294.421182	20.266667
567.783347	1295.705927	20.283333
568.427707	1297.813215	20.300000
568.751406	1299.563485	20.316667
569.074172	1302.707934	20.333333
569.718217	1305.284961	20.350000
570.362573	1307.399018	20.366667
570.685645	1310.085562	20.383333
571.329998	1312.203004	20.400000
571.492270	1315.412459	20.416667
572.457591	1317.428193	20.433333
572.942081	1318.670009	20.450000
573.265460	1320.898991	20.466667
574.070920	1322.036951	20.483333
574.234125	1323.853580	20.500000
574.717046	1327.437069	20.516667
575.522503	1328.577875	20.533333
576.006990	1329.824548	20.550000
576.330677	1331.592921	20.566667
576.653736	1334.299929	20.583333
577.297763	1336.903889	20.600000
577.942418	1338.570957	20.616667
578.265788	1340.813984	20.633333
578.749326	1343.476065	20.650000
579.393979	1345.146856	20.666667
579.877830	1347.341888	20.683333
580.522797	1348.544012	20.700000
580.524875	1351.370376	20.716667
581.168893	1353.988719	20.733333
581.652424	1356.661803	20.750000
582.296439	1359.284568	20.766667
582.780284	1361.489400	20.783333
583.424612	1363.643269	20.800000
583.908772	1365.377979	20.816667
584.553734	1366.587816	20.833333
584.877724	1367.903185	20.850000
585.201080	1370.166656	20.866667
585.845405	1372.326724	20.883333
586.329243	1374.540793	20.900000
586.813399	1376.281688	20.916667
587.136433	1379.025963	20.933333
588.102042	1380.612046	20.950000
588.426347	1381.457896	20.966667
588.910500	1383.202760	20.983333
589.555456	1384.420349	21.000000
589.718638	1386.271756	21.016667
590.202151	1388.972089	21.033333
590.685343	1392.151438	21.050000
591.168853	1394.856521	21.066667
591.813166	1397.033904	21.083333
592.136188	1399.795371	21.100000
592.780178	1402.454350	21.116667
593.425129	1403.680022	21.133333
593.748789	1405.489540	21.150000
594.393097	1407.674348	21.166667
594.716434	1409.965306	21.183333
595.521225	1412.100913	21.200000
596.166816	1412.371364	21.216667
596.490794	1413.705970	21.233333
597.296869	1413.924421	21.250000
597.461005	1414.352057	21.266667
597.784339	1416.647983	21.283333
598.268157	1418.893168	21.300000
598.269552	1422.739420	21.316667
598.912239	1427.343660	21.333333
599.716376	1430.455373	21.350000
600.199865	1433.192079	21.366667
600.844160	1435.396062	21.383333
601.167161	1438.188991	21.400000
601.650645	1440.931928	21.416667
602.294937	1443.141151	21.433333
602.778094	1446.372248	21.450000
603.905136	1446.491432	21.466667
603.908784	1446.975679	21.483333
604.553398	1448.704731	21.500000
605.037850	1450.002181	21.516667
605.522303	1451.300198	21.533333
606.007080	1452.113741	21.550000
606.170237	1454.002149	21.566667
606.653387	1457.244057	21.583333
607.136860	1460.002883	21.600000
607.299037	1463.354467	21.616667
608.263309	1466.935590	21.633333
608.747104	1469.214842	21.650000
609.230572	1471.983191	21.666667
610.035334	1474.161768	21.683333
610.358968	1476.009796	21.700000
610.842759	1478.295201	21.716667
611.487688	1479.552779	21.733333
611.650508	1481.944645	21.750000
612.455266	1484.130083	21.766667
612.618411	1486.035489	21.783333
613.583980	1487.682026	21.800000
614.068750	1488.505685	21.816667
614.392050	1490.851705	21.833333
615.037305	1491.624303	21.850000
615.200447	1493.533886	21.866667
615.683901	1496.322170	21.883333
616.327509	1499.551989	21.900000
616.650805	1501.905334	21.916667
617.133925	1505.192187	21.933333
617.778187	1507.445411	21.950000
618.261303	1510.737397	21.966667
619.066708	1511.956528	21.983333
619.069029	1514.421832	22.000000
619.873441	1517.122943	22.016667
620.357213	1519.436054	22.033333
620.680831	1521.308380	22.050000
621.485902	1523.026235	22.066667
621.970334	1524.354157	22.083333
622.293287	1527.218895	22.100000
622.938535	1528.001644	22.116667
623.422302	1530.322179	22.133333
624.067549	1531.105839	22.150000
624.230678	1533.036369	22.166667
625.195897	1535.205012	22.183333
625.038387	1536.745045	22.200000
625.681637	1540.509405	22.216667
626.325883	1542.786519	22.233333
626.649159	1545.168633	22.250000
627.293070	1547.946439	22.266667
627.937980	1549.232768	22.283333
628.100102	1552.667206	22.300000
628.904827	1554.900682	22.316667
629.228432	1556.791943	22.333333
629.872671	1559.079901	22.350000
630.516909	1561.369416	22.366667
631.162150	1562.161703	22.383333
631.325603	1563.608848	22.400000
631.970174	1565.401529	22.416667
632.293440	1567.798674	22.433333
633.259314	1568.989922	22.450000
633.101795	1570.543059	22.466667
633.906513	1572.788763	22.483333
634.230111	1574.689651	22.500000
634.552365	1578.597519	22.516667
635.196594	1580.900077	22.533333
635.518844	1584.814245	22.550000
636.483703	1587.520463	22.566667
636.968118	1588.874425	22.583333
636.970404	1591.389915	22.600000
638.256566	1593.494765	22.616667
638.099379	1594.553509	22.633333
638.903410	1597.823191	22.650000
639.548307	1599.129788	22.666667
639.550251	1602.156554	22.683333
640.515439	1604.371673	22.700000
640.678542	1606.340471	22.716667
641.161597	1609.723874	22.733333
641.966297	1611.995455	22.750000
642.129058	1614.474323	22.766667
642.934096	1616.242538	22.783333
643.258018	1617.659345	22.800000
643.901891	1620.494629	22.816667
644.707945	1620.744666	22.833333
644.549734	1623.332140	22.850000
645.514572	1626.069125	22.866667
645.838833	1626.981959	22.883333
646.161391	1630.435659	22.900000
646.805597	1632.772359	22.916667
647.289318	1635.161958	22.933333
647.933522	1637.501768	22.950000
648.257098	1639.436323	22.966667
648.419165	1642.952416	22.983333
649.383651	1646.214978	23.000000
649.706882	1648.664474	23.016667
650.832875	1650.348288	23.033333
650.836505	1650.859132	23.050000
651.480703	1653.209195	23.066667
652.125927	1654.026641	23.083333
652.289356	1655.509569	23.100000
652.612240	1658.477059	23.116667
653.256091	1661.344274	23.133333
653.900627	1663.188698	23.150000
654.223850	1665.649276	23.166667
654.868385	1667.495952	23.183333
655.351403	1670.934814	23.200000
655.835452	1672.835419	23.216667
656.158327	1675.816107	23.233333
656.481201	1678.798975	23.250000
657.285180	1682.145371	23.266667
657.768880	1684.566734	23.283333
658.734722	1685.805575	23.300000
659.059663	1685.703330	23.316667
659.382531	1688.693961	23.333333
659.867265	1689.572075	23.350000
660.190477	1692.049530	23.366667
660.834311	1694.942750	23.383333
661.318351	1696.855776	23.400000
661.962182	1699.752716	23.416667
662.125252	1701.770339	23.433333
662.769081	1704.670973	23.450000
663.252771	1707.106883	23.466667
663.736460	1709.544333	23.483333
664.219105	1713.539272	23.500000
665.024455	1714.840752	23.516667
665.509184	1715.725735	23.533333
666.154397	1716.559988	23.550000
666.318158	1717.547472	23.566667
666.801494	1720.511395	23.583333
667.124345	1723.528485	23.600000
667.768511	1725.925504	23.616667
668.252192	1728.375028	23.633333
669.057538	1729.682489	23.650000
669.381431	1731.143333	23.666667
669.704626	1733.647203	23.683333
670.188303	1736.101686	23.700000
670.349962	1740.225457	23.716667
670.992371	1745.245650	23.733333
671.957145	1748.077595	23.750000
672.441518	1749.494422	23.766667
672.765056	1751.486102	23.783333
673.409210	1753.900829	23.800000
674.214549	1755.218264	23.816667
674.539138	1755.640599	23.833333
674.701487	1758.734974	23.850000
675.184803	1761.729904	23.866667
675.667765	1765.252170	23.883333
676.633233	1767.048617	23.900000
676.796281	1769.099959	23.916667
677.279944	1771.576663	23.933333
677.763253	1774.581193	23.950000
678.246560	1777.587930	23.966667
678.729866	1780.596873	23.983333
679.535552	1781.397476	24.000000
679.698242	1783.983330	24.016667
680.502866	1786.367901	24.033333
680.826391	1788.378074	24.050000
681.149916	1790.389229	24.066667
681.794053	1792.828548	24.083333
682.438190	1795.269432	24.100000
682.921842	1797.762528	24.116667
683.084525	1800.358443	24.133333
683.888432	1803.813004	24.150000
684.694113	1804.619801	24.166667
684.696665	1806.740333	24.183333
685.662119	1808.558203	24.200000
685.986348	1809.518129	24.216667
686.148670	1812.652352	24.233333
686.631958	1815.687588	24.250000
687.115245	1818.725033	24.266667
687.919855	1821.131551	24.283333
688.565049	1821.993514	24.300000
688.888206	1824.553876	24.316667
689.854724	1824.783154	24.333333
689.697142	1826.431476	24.350000
690.340550	1829.959686	24.366667
690.664061	1831.991591	24.383333
690.985783	1836.693174	24.400000
691.951227	1838.526350	24.416667
692.274735	1840.562440	24.433333
692.918851	1843.033250	24.450000
693.242358	1845.071561	24.466667
693.565146	1848.181303	24.483333
694.208542	1851.728064	24.500000
694.692170	1854.256112	24.516667
695.336281	1856.735308	24.533333
695.980751	1858.679480	24.550000
696.304252	1860.725431	24.566667
697.109564	1862.084227	24.583333
697.433424	1863.594725	24.600000
698.078251	1865.005058	24.616667
698.402110	1866.516687	24.633333
698.564404	1869.692647	24.650000
699.208148	1872.719777	24.666667
699.691407	1875.799459	24.683333
700.335148	1878.831047	24.700000
701.140455	1880.196787	24.716667
701.142620	1882.893405	24.733333
702.268532	1884.699817	24.750000
702.111297	1885.829657	24.766667
702.754309	1889.949245	24.783333
703.398767	1891.910017	24.800000
703.561049	1895.104257	24.816667
704.525748	1898.049543	24.833333
705.010445	1898.981596	24.850000
705.173450	1901.097536	24.866667
705.978388	1903.013639	24.883333
706.301512	1905.623530	24.900000
706.946328	1907.049682	24.916667
707.269450	1909.662041	24.933333
707.913538	1912.175602	24.950000
708.076174	1914.841183	24.966667
708.720260	1917.357847	24.983333
709.364345	1919.876078	25.000000
709.848309	1921.901816	25.016667
710.171425	1924.523087	25.033333
710.493810	1928.235505	25.050000
711.137160	1931.850728	25.066667
711.780873	1934.923288	25.083333
712.586166	1936.310226	25.100000
712.749524	1937.897977	25.116667
713.393235	1940.975039	25.133333
713.717075	1942.514408	25.150000
714.360417	1946.141793	25.166667
714.844740	1947.633010	25.183333
715.167112	1951.364732	25.200000
715.971666	1953.853539	25.216667
716.295137	1955.945686	25.233333
716.939941	1957.390513	25.250000
717.263042	1960.033007	25.266667
717.746259	1963.176046	25.283333
718.390325	1965.722031	25.300000
718.713791	1967.819861	25.316667
719.197004	1970.968451	25.333333
720.002288	1972.368897	25.350000
720.325752	1974.469954	25.366667
720.809330	1977.072714	25.383333
721.293276	1979.126108	25.400000
721.616000	1982.332742	25.416667
722.420542	1984.840423	25.433333
722.904486	1986.897560	25.450000
723.548912	1988.905860	25.466667
724.033595	1989.860559	25.483333
724.357423	1991.417669	25.500000
724.840995	1994.030700	25.516667
725.164082	1996.695084	25.533333
725.646539	2000.971230	25.550000
726.289848	2004.647620	25.566667
726.773785	2006.714229	25.583333
727.418205	2008.732085	25.600000
727.902513	2010.246146	25.616667
728.385705	2013.425190	25.633333
729.030123	2015.446332	25.650000
729.192718	2018.173050	25.666667
730.158101	2020.097039	25.683333
730.321812	2021.158831	25.700000
730.965482	2024.295996	25.716667
731.128446	2026.471481	25.733333
731.611631	2029.662024	25.750000
732.254923	2033.362296	25.766667
732.899335	2035.392998	25.783333
733.222406	2038.081700	25.800000
733.866068	2041.230771	25.816667
734.349993	2043.314860	25.833333
734.672687	2046.566860	25.850000
735.156611	2048.653432	25.866667
735.639035	2052.978287	25.883333
736.443924	2054.968719	25.900000
736.928220	2056.499390	25.916667
737.572999	2057.981088	25.933333
737.897187	2059.002241	25.950000
738.059766	2061.754359	25.966667
738.863148	2065.992535	25.983333
739.347442	2067.527182	26.000000
739.509641	2070.845659	26.016667
740.313770	2073.968381	26.033333
740.957792	2076.580628	26.050000
741.442083	2078.119054	26.066667
741.925997	2080.220633	26.083333
742.249805	2081.809837	26.100000
742.732586	2085.602542	26.116667
743.376980	2087.658188	26.133333
743.699653	2090.941199	26.150000
744.504151	2093.514059	26.166667
744.666716	2096.286054	26.183333
745.471212	2098.862060	26.200000
745.955119	2100.973378	26.216667
746.439784	2101.955373	26.233333
746.923690	2104.068208	26.250000
747.246734	2106.797008	26.266667
747.890743	2109.428678	26.283333
748.214164	2111.594330	26.300000
748.536446	2115.460546	26.316667
749.340174	2119.181868	26.333333
749.823315	2122.437365	26.350000
750.467698	2124.510397	26.366667
751.273705	2124.831762	26.383333
751.598263	2125.300992	26.400000
751.599952	2128.708771	26.416667
752.243571	2131.921752	26.433333
752.565842	2135.804313	26.450000
753.852533	2137.117669	26.466667
753.695260	2138.305238	26.483333
754.339257	2140.955391	26.500000
754.662286	2143.705485	26.516667
754.984551	2147.597518	26.533333
755.788262	2151.345066	26.550000
756.271388	2154.622868	26.566667
756.914995	2157.853762	26.583333
757.399267	2159.420933	26.600000
758.043638	2161.511388	26.616667
758.689159	2161.886843	26.633333
758.691598	2164.174993	26.650000
759.174718	2167.461746	26.666667
759.818703	2170.128793	26.683333
760.140953	2174.041908	26.700000
760.945419	2176.663647	26.716667
761.751421	2176.992016	26.733333
761.754240	2178.713153	26.750000
762.398220	2181.386804	26.766667
762.399884	2184.832515	26.783333
763.041936	2190.384162	26.800000
763.846781	2192.440005	26.816667
764.169405	2195.795030	26.833333
765.134345	2198.380425	26.850000
765.297642	2200.059702	26.866667
765.941614	2202.745532	26.883333
766.586745	2203.702872	26.900000
766.588785	2206.586610	26.916667
767.392851	2209.804528	26.933333
767.876724	2211.967369	26.950000
768.681175	2214.611227	26.966667
769.166208	2215.042427	26.983333
769.329501	2216.727465	27.000000
769.652114	2220.099185	27.016667
770.135596	2222.845493	27.033333
770.618301	2226.751533	27.050000
771.261098	2231.191364	27.066667
771.584094	2233.992664	27.083333
772.709890	2235.971314	27.100000
773.355404	2236.356363	27.116667
773.198116	2237.565782	27.133333
773.681202	2240.902766	27.150000
774.003025	2245.453042	27.166667
774.806684	2249.279308	27.183333
775.451417	2250.829574	27.200000
775.935278	2253.011199	27.216667
776.740102	2255.096402	27.233333
776.743684	2255.678754	27.250000
777.065499	2260.242327	27.266667
777.709058	2263.545851	27.283333
778.192132	2266.900288	27.300000
778.996562	2269.575715	27.316667
779.319934	2271.814497	27.333333
779.803396	2274.590046	27.350000
780.447732	2276.733806	27.366667
780.771102	2278.975819	27.383333
781.575527	2281.658218	27.400000
781.900072	2282.146290	27.416667
782.223048	2284.976384	27.433333
783.027470	2287.662281	27.450000
783.189961	2290.544036	27.466667
783.833899	2293.281641	27.483333
784.156871	2296.117905	27.500000
784.639538	2300.081541	27.516667
785.604830	2302.139903	27.533333
785.606834	2305.078127	27.550000
786.410855	2308.363506	27.566667
787.055574	2309.934325	27.583333
787.218452	2312.239721	27.600000
787.861987	2315.578483	27.616667
788.024468	2318.475547	27.633333
788.988570	2322.311187	27.650000
789.794559	2322.658756	27.666667
789.958618	2323.200113	27.683333
790.442457	2325.414600	27.700000
790.604934	2328.317237	27.716667
790.765827	2333.584492	27.733333
791.890404	2337.383645	27.750000
792.052084	2341.476046	27.766667
793.017364	2343.553455	27.783333
793.341111	2345.233046	27.800000
793.984631	2348.593916	27.816667
794.791015	2348.352315	27.833333
794.794590	2348.944903	27.850000
795.277229	2352.949774	27.866667
795.761058	2355.177534	27.883333
796.083609	2358.641755	27.900000
797.209366	2360.678935	27.916667
797.372627	2362.412640	27.933333
797.856055	2365.239035	27.950000
798.340279	2366.877728	27.966667
798.341462	2371.041169	27.983333
799.144256	2376.157419	28.000000
799.466000	2380.827201	28.016667
800.108705	2385.404526	28.033333
800.913489	2387.550199	28.050000
801.075544	2391.083598	28.066667
802.200490	2394.330391	28.083333
802.364545	2394.879772	28.100000
803.008443	2397.675751	28.116667
803.653543	2398.679123	28.133333
803.977678	2399.778980	28.150000
804.461494	2402.027558	28.166667
804.785227	2403.726675	28.183333
804.946472	2408.468704	28.200000
805.910929	2411.775459	28.216667
806.234259	2414.077336	28.233333
806.878150	2416.884023	28.250000
807.201076	2419.788332	28.266667
807.522794	2424.496017	28.283333
808.166279	2427.909356	28.300000
808.649281	2431.372923	28.316667
809.453648	2434.141024	28.333333
810.259628	2434.503002	28.350000
810.262390	2436.308709	28.366667
811.067159	2438.477440	28.383333
811.230403	2440.236496	28.400000
812.034766	2443.009733	28.416667
812.358491	2444.722362	28.433333
812.841889	2447.593962	28.450000
813.486173	2449.815734	28.466667
813.648200	2453.389713	28.483333
813.809822	2457.570074	28.500000
815.095220	2460.813811	28.516667
815.097572	2463.232757	28.533333
816.061598	2467.181271	28.550000
816.385317	2468.901767	28.566667
816.708631	2471.228508	28.583333
817.352095	2474.672684	28.600000
817.836295	2476.347835	28.616667
818.319681	2479.236579	28.633333
818.963955	2481.472278	28.650000
819.126376	2484.459344	28.666667
819.930317	2487.864424	28.683333
820.093143	2490.247104	28.700000
820.897081	2493.655957	28.716667
821.542166	2494.681437	28.733333
821.704989	2497.067095	28.750000
822.348034	2501.137053	28.766667
822.671338	2503.477731	28.783333
823.314789	2506.942950	28.800000
823.958646	2509.800594	28.816667
824.281947	2512.145007	28.833333
825.247993	2513.079448	28.850000
825.412038	2513.642029	28.866667
825.573629	2517.867546	28.883333
826.377555	2521.294590	28.900000
826.539962	2524.302879	28.916667
827.343065	2528.957573	28.933333
827.665951	2531.922280	28.950000
828.469871	2535.358363	28.966667
829.114949	2536.393329	28.983333
829.117279	2538.844252	29.000000
829.921196	2542.284892	29.016667
830.565863	2543.934822	29.033333
830.567780	2547.002598	29.050000
831.693479	2549.125555	29.066667
832.017181	2550.872760	29.083333
832.340470	2553.234884	29.100000
832.824652	2554.935950	29.116667
833.308010	2557.867224	29.133333
833.791368	2560.800057	29.150000
834.275136	2563.118997	29.166667
834.758079	2566.670403	29.183333
835.402327	2568.944459	29.200000
835.403409	2573.258163	29.216667
836.367792	2576.673778	29.233333
836.690248	2580.281093	29.250000
837.333665	2583.795944	29.266667
837.977908	2586.077338	29.283333
838.301602	2587.836372	29.300000
838.945430	2590.737817	29.316667
839.590914	2591.166940	29.333333
839.431504	2595.544183	29.350000
840.717670	2597.641570	29.366667
840.720398	2599.498925	29.383333
841.525119	2601.739957	29.400000
842.008875	2604.076529	29.416667
842.332980	2605.221574	29.433333
842.655839	2608.226994	29.450000
842.977449	2613.095510	29.466667
843.780501	2617.826346	29.483333
844.425151	2619.501184	29.500000
844.747588	2623.135635	29.516667
845.552302	2625.386921	29.533333
845.715088	2627.827839	29.550000
846.197586	2632.042873	29.566667
847.002297	2634.298001	29.583333
847.486462	2636.025370	29.600000
847.649246	2638.470732	29.616667
848.132574	2641.446396	29.633333
848.453748	2646.966550	29.650000
849.256781	2651.725878	29.666667
850.061486	2653.989453	29.683333
850.546066	2655.098119	29.700000
851.191126	2656.160028	29.716667
851.354323	2657.988503	29.733333
851.676744	2661.647104	29.750000
852.481446	2663.915085	29.766667
852.804704	2666.325067	29.783333
853.127541	2669.362424	29.800000
853.609599	2674.234782	29.816667
854.413877	2677.135315	29.833333
855.058514	2678.829478	29.850000
855.382188	2680.618083	29.866667
855.866343	2682.360338	29.883333
856.189174	2685.406095	29.900000
856.832967	2688.359607	29.916667
856.994473	2692.712807	29.933333
857.798745	2695.623209	29.950000
858.121150	2699.305202	29.966667
858.603613	2703.572424	29.983333
859.247400	2706.535345	30.000000
860.212993	2708.145350	30.016667
860.537505	2708.682158	30.033333
860.861173	2710.480190	30.050000
861.183995	2713.540547	30.066667
861.828201	2715.877678	30.083333
862.150597	2719.572351	30.100000
862.954860	2722.497102	30.116667
863.116349	2726.874841	30.133333
863.760127	2729.850104	30.150000
864.403905	2732.826955	30.166667
865.208587	2735.125529	30.183333
865.372616	2735.712010	30.200000
865.373618	2740.145903	30.216667
866.016117	2745.030163	30.233333
866.659039	2749.283827	30.250000
867.785104	2750.861295	30.266667
868.109613	2751.402803	30.283333
868.594178	2752.532648	30.300000
869.078743	2753.662762	30.316667
868.919681	2757.520718	30.333333
869.561745	2763.055434	30.350000
870.366418	2765.366861	30.366667
870.688794	2769.092015	30.383333
871.654373	2770.722694	30.400000
871.978455	2771.903241	30.416667
872.623498	2772.990978	30.433333
872.465281	2775.586005	30.450000
872.946425	2781.821905	30.466667
874.072056	2784.048339	30.483333
874.395280	2786.508260	30.500000
874.878128	2790.200002	30.516667
875.362260	2791.977027	30.533333
875.684197	2796.357869	30.550000
876.488860	2798.683470	30.566667
876.972990	2800.463178	30.583333
877.457548	2801.603559	30.600000
877.619857	2804.757296	30.616667
878.102269	2809.100856	30.633333
878.745160	2813.401073	30.650000
879.549819	2815.733890	30.666667
879.712123	2818.894694	30.683333
880.678122	2819.899948	30.700000
880.680804	2821.825361	30.716667
881.323689	2826.134825	30.733333
881.646901	2828.611979	30.750000
882.450694	2832.236998	30.766667
882.934817	2834.027229	30.783333
883.097115	2837.197304	30.800000
883.739992	2841.517707	30.816667
884.384162	2843.908618	30.833333
884.706506	2847.681812	30.850000
885.511156	2850.029055	30.866667
885.674313	2851.917242	30.883333
886.638145	2856.155804	30.900000
886.802166	2856.754971	30.916667
887.284985	2860.489834	30.933333
887.929583	2862.242704	30.950000
888.252353	2865.380834	30.966667
888.896083	2868.428235	30.983333
889.540679	2870.183637	31.000000
889.864312	2872.031874	31.016667
890.347126	2875.776151	31.033333
890.509844	2878.319671	31.050000
891.152267	2883.317484	31.066667
891.795557	2887.022395	31.083333
892.117884	2890.821656	31.100000
893.082567	2893.789935	31.116667
893.406196	2895.645323	31.133333
893.889870	2898.104720	31.150000
894.534024	2900.519132	31.166667
894.857652	2902.376612	31.183333
895.019056	2906.881506	31.200000
896.144650	2909.161579	31.216667
896.306923	2912.369328	31.233333
897.111990	2914.092558	31.250000
897.114218	2916.697365	31.266667
897.917974	2920.376780	31.283333
898.241161	2922.892208	31.300000
898.723954	2926.667215	31.316667
899.528144	2929.700069	31.333333
899.852203	2930.913663	31.350000
900.014031	2934.785283	31.366667
900.817780	2938.475714	31.383333
900.818249	2943.705332	31.400000
901.782475	2947.355220	31.416667
902.426616	2949.789773	31.433333
903.231676	2951.524797	31.450000
903.877570	2951.341655	31.466667
903.720184	2952.697082	31.483333
904.042485	2956.535904	31.500000
904.524824	2960.986821	31.516667
905.006723	2966.096887	31.533333
906.131860	2969.058400	31.550000
906.294993	2970.982365	31.566667
907.260529	2972.678399	31.583333
907.264061	2973.335271	31.600000
907.425432	2977.889370	31.616667
908.067361	2983.625068	31.633333
908.710610	2987.390803	31.650000
909.675260	2990.408987	31.666667
910.321154	2990.226496	31.683333
910.163322	2992.248058	31.700000
911.288892	2994.564246	31.716667
911.292864	2994.564246	31.733333
911.453783	2999.792504	31.750000
912.257064	3004.182436	31.766667
912.578901	3008.712109	31.783333
913.383063	3011.786803	31.800000
913.866706	3014.293247	31.816667
914.188982	3018.168586	31.833333
914.993140	3021.248075	31.850000
915.316300	3023.803800	31.866667
915.799940	3026.315047	31.883333
916.604983	3028.074123	31.900000
916.767661	3030.678085	31.916667
917.572259	3033.101249	31.933333
917.735379	3035.044263	31.950000
918.217683	3039.549831	31.966667
918.861798	3042.022016	31.983333
919.344988	3045.204493	32.000000
920.149583	3047.633610	32.016667
920.313145	3048.916631	32.033333
920.795887	3052.767186	32.050000
921.279074	3055.955019	32.066667
921.119000	3061.321707	32.083333
922.403247	3066.284418	32.100000
922.726395	3068.857919	32.116667
923.691017	3071.917712	32.133333
924.176430	3071.781870	32.150000
924.500469	3073.024376	32.166667
924.823168	3076.267561	32.183333
924.984939	3080.224763	32.200000
925.788182	3084.670878	32.216667
926.593214	3086.448109	32.233333
926.917251	3087.693557	32.250000
927.721834	3090.140028	32.266667
927.886287	3090.094825	32.283333
928.047156	3095.397605	32.300000
928.690808	3098.561357	32.316667
929.173082	3103.110680	32.333333
929.815834	3107.617903	32.350000
930.299451	3110.162609	32.366667
930.782619	3113.378751	32.383333
931.426265	3116.551369	32.400000
931.909880	3119.099630	32.416667
932.071634	3123.081662	32.433333
932.875307	3126.885668	32.450000
933.359369	3128.766015	32.466667
934.003011	3131.946254	32.483333
934.648453	3132.438410	32.500000
934.971583	3135.038059	32.516667
935.295164	3136.965946	32.533333
935.456911	3140.958399	32.550000
936.259223	3146.793776	32.566667
936.742378	3150.027852	32.583333
937.385561	3153.892841	32.600000
938.191482	3154.342511	32.616667
938.515058	3156.276083	32.633333
938.677250	3159.604763	32.650000
939.320881	3162.800262	32.666667
939.643551	3166.087129	32.683333
940.608593	3168.520285	32.700000
940.770781	3171.854852	32.716667
941.253475	3175.777612	32.733333
941.897100	3178.981045	32.750000
942.219765	3182.275711	32.766667
942.863389	3185.482312	32.783333
943.346985	3188.057702	32.800000
943.990607	3191.267177	32.816667
944.475110	3192.488730	32.833333
944.637291	3195.834744	32.850000
945.280455	3199.726678	32.866667
945.764048	3202.307654	32.883333
946.246730	3206.248103	32.900000
946.891256	3208.107395	32.916667
947.213456	3212.095943	32.933333
948.017094	3215.952671	32.950000
948.341114	3217.223869	32.966667
948.985182	3219.767047	32.983333
949.630162	3220.949716	33.000000
949.632310	3223.673052	33.016667
950.275007	3228.262685	33.033333
950.758592	3230.854845	33.050000
950.919389	3236.265184	33.066667
952.043977	3240.046869	33.083333
952.367537	3242.005454	33.100000
952.850661	3245.285878	33.116667
953.334242	3247.884624	33.133333
953.655969	3252.579584	33.150000
954.139090	3255.865016	33.166667
954.782689	3259.107524	33.183333
955.426288	3262.351632	33.200000
955.749384	3265.001436	33.216667
956.071103	3269.707674	33.233333
956.874719	3273.597971	33.250000
957.358292	3276.207594	33.266667
957.841865	3278.818237	33.283333
958.646397	3281.341093	33.300000
958.809929	3282.669517	33.316667
959.293040	3285.969475	33.333333
959.615670	3289.315376	33.350000
960.096937	3295.368500	33.366667
961.061944	3297.853479	33.383333
961.385954	3299.140705	33.400000
961.869520	3301.760257	33.416667
962.192146	3305.113663	33.433333
962.835729	3308.380034	33.450000
963.318832	3311.692282	33.466667
963.801934	3315.006103	33.483333
964.285035	3318.321497	33.500000
964.768134	3321.638464	33.516667
965.411713	3324.912783	33.533333
966.216695	3326.763188	33.550000
966.541626	3326.674763	33.566667
966.704227	3329.393434	33.583333
967.025917	3334.142412	33.600000
967.346215	3340.969716	33.616667
967.987932	3347.022395	33.633333
968.952925	3349.527808	33.650000
969.436479	3352.166631	33.666667
970.080976	3354.069245	33.683333
970.243570	3356.798051	33.700000
970.887137	3360.089227	33.716667
971.209279	3364.164114	33.733333
972.013323	3367.414730	33.750000
972.496872	3370.060429	33.766667
973.141366	3371.968330	33.783333
973.787256	3371.792233	33.800000
973.789832	3373.876835	33.816667
974.433393	3377.176357	33.833333
974.595515	3380.609445	33.850000
975.077662	3385.347969	33.866667
975.398395	3391.526434	33.883333
976.201029	3396.881016	33.900000
977.005997	3398.752797	33.916667
977.490473	3400.015632	33.933333
977.813067	3403.415323	33.950000
977.974246	3408.256463	33.966667
978.777808	3412.226674	33.983333
979.421357	3415.544258	34.000000
980.066778	3416.067679	34.016667
980.550315	3418.731959	34.033333
980.712425	3422.184236	34.050000
981.195023	3426.250137	34.066667
981.999047	3429.530644	34.083333
982.322101	3432.243770	34.100000
982.805634	3434.914133	34.116667
983.288227	3438.987211	34.133333
983.932237	3441.616378	34.150000
983.933390	3445.824387	34.166667
984.735997	3451.219934	34.183333
985.380005	3453.853698	34.200000
986.184961	3455.742357	34.216667
986.348000	3457.806303	34.233333
986.992477	3459.739829	34.250000
987.154102	3463.914179	34.266667
987.957643	3467.916215	34.283333
988.280688	3470.643676	34.300000
988.924218	3473.989009	34.316667
989.407741	3476.675149	34.333333
989.408408	3481.607082	34.350000
990.371949	3486.280650	34.366667
991.015947	3488.927801	34.383333
991.178508	3491.706573	34.400000
991.982511	3495.018246	34.416667
992.305076	3498.462041	34.433333
992.787645	3502.570552	34.450000
993.431166	3505.930830	34.466667
993.914206	3509.336164	34.483333
994.719626	3510.533645	34.500000
995.044082	3511.154218	34.516667
995.205689	3515.356830	34.533333
996.009684	3518.679792	34.550000
996.332716	3521.426138	34.566667
996.976706	3524.086706	34.583333
996.977353	3529.048799	34.600000
997.940873	3533.753719	34.616667
998.424856	3535.752507	34.633333
998.746932	3539.925143	34.650000
999.390917	3542.592631	34.666667
999.712991	3546.769005	34.683333
1000.196019	3550.193302	34.700000
1001.000003	3553.532642	34.716667
1001.483982	3555.537031	34.733333
1002.128440	3557.498758	34.750000
1002.452416	3558.835742	34.766667
1002.774484	3563.021169	34.783333
1003.579419	3564.941842	34.800000
1003.420526	3568.547581	34.816667
1004.062115	3574.791167	34.833333
1004.705135	3578.898809	34.850000
1005.026717	3583.808989	34.866667
1005.991170	3587.120949	34.883333
1006.475621	3588.420326	34.900000
1006.636721	3593.379755	34.916667
1007.441171	3596.024220	34.933333
1007.602267	3600.988396	34.950000
1008.566714	3604.308474	34.966667
1008.729247	3607.129300	34.983333
1009.694172	3609.735943	35.000000
1010.019102	3609.649879	35.016667
1010.502590	3612.386700	35.033333
1010.825599	3615.167553	35.050000
1011.148127	3618.666524	35.066667
1011.791130	3622.798571	35.083333
1012.273654	3626.975865	35.100000
1012.595697	3631.198354	35.116667
1013.399656	3634.575693	35.133333
1013.561699	3638.126325	35.150000
1014.203250	3644.426942	35.166667
1015.168648	3646.328163	35.183333
1015.492613	3647.681747	35.200000
1015.815613	3650.475426	35.216667
1016.459088	3653.904661	35.233333
1016.621608	3656.743446	35.250000
1017.425559	3660.132721	35.266667
1017.909035	3662.888130	35.283333
1018.552022	3667.044560	35.300000
1018.875985	3668.402020	35.316667
1019.358975	3671.882362	35.333333
1019.842448	3674.642116	35.350000
1020.164958	3678.168055	35.366667
1020.486498	3683.141155	35.383333
1021.128509	3688.755173	35.400000
1021.289566	3693.777434	35.416667
1022.412522	3699.995229	35.433333
1023.379850	3699.014970	35.450000
1023.543331	3700.421016	35.466667
1024.188246	3701.699370	35.483333
1024.190276	3704.598020	35.500000
1025.155177	3707.241881	35.516667
1025.157206	3710.142512	35.533333
1025.800175	3714.324868	35.550000
1026.604595	3717.015016	35.566667
1026.928551	3718.381781	35.583333
1027.250561	3722.653888	35.600000
1027.894987	3724.663120	35.616667
1028.216994	3728.938607	35.633333
1029.020923	3732.361478	35.650000
1029.344390	3734.458498	35.666667
1029.827360	3737.968967	35.683333
1030.310329	3741.481017	35.700000
1030.631843	3746.493955	35.716667
1031.274799	3750.696140	35.733333
1031.918243	3754.171423	35.750000
1032.401696	3756.961293	35.766667
1033.046604	3758.250585	35.783333
1033.369577	3761.084421	35.800000
1034.013018	3764.564549	35.816667
1034.336479	3766.670348	35.833333
1034.818950	3770.926023	35.850000
1035.302398	3773.722046	35.866667
1035.463910	3778.066155	35.883333
1036.588290	3782.158581	35.900000
1036.911748	3784.269147	35.916667
1037.234715	3787.112318	35.933333
1037.717669	3790.646555	35.950000
1037.717224	3797.240312	35.966667
1038.840614	3802.809907	35.983333
1039.324055	3805.617369	36.000000
1039.967482	3809.117589	36.016667
1040.773353	3809.640601	36.033333
1040.776342	3811.108798	36.050000
1041.581229	3813.100634	36.066667
1042.065160	3815.177442	36.083333
1042.066179	3819.585759	36.100000
1043.031050	3822.272972	36.116667
1043.193037	3825.907365	36.133333
1043.674500	3831.666616	36.150000
1044.478891	3834.400402	36.166667
1044.640874	3838.040055	36.183333
1045.283304	3843.028779	36.200000
1045.766241	3846.588039	36.216667
1046.248683	3850.886455	36.233333
1047.053563	3852.889453	36.250000
1047.216036	3855.799115	36.266667
1047.858953	3860.060478	36.283333
1048.503353	3862.108064	36.300000
1048.986285	3865.675924	36.316667
1049.631674	3866.247023	36.333333
1049.793648	3869.900721	36.350000
1050.276577	3873.472083	36.366667
1050.920479	3876.263242	36.383333
1051.082451	3879.921282	36.400000
1051.885837	3884.153776	36.416667
1052.047310	3888.556069	36.433333
1053.011171	3892.751299	36.450000
1053.335105	3894.150234	36.466667
1053.657053	3898.515921	36.483333
1054.139973	3902.099943	36.500000
1054.782376	3907.128590	36.516667
1055.425275	3911.417452	36.533333
1056.230641	3912.694439	36.550000
1056.555071	3913.353926	36.566667
1056.877510	3916.986425	36.583333
1057.361421	3919.091539	36.600000
1058.005312	3921.899277	36.616667
1058.167768	3924.833213	36.633333
1058.811159	3928.387335	36.650000
1058.972117	3933.557541	36.666667
1059.775484	3937.818911	36.683333
1060.096916	3942.953078	36.700000
1061.061257	3946.431894	36.716667
1061.224208	3948.628191	36.733333
1061.867092	3952.939254	36.750000
1062.349996	3956.547420	36.766667
1062.832900	3960.157170	36.783333
1063.637259	3962.938063	36.800000
1063.960684	3965.097147	36.816667
1064.766544	3965.636944	36.833333
1064.929492	3967.838367	36.850000
1065.252415	3970.746781	36.866667
1065.895792	3974.321448	36.883333
1066.379693	3976.442124	36.900000
1066.701611	3980.851175	36.916667
1067.023528	3985.262450	36.933333
1067.504414	3991.883532	36.950000
1067.985799	3997.759334	36.966667
1068.788640	4002.805612	36.983333
1069.271530	4006.435662	37.000000
1069.914897	4010.025934	37.016667
1070.237810	4012.948934	37.033333
1070.880671	4017.293986	37.050000
1071.685520	4019.343408	37.066667
1071.848458	4021.558709	37.083333
1072.653306	4023.609351	37.100000
1073.138207	4024.237972	37.116667
1073.461621	4026.413339	37.133333
1073.784531	4029.342241	37.150000
1074.266908	4033.737479	37.166667
1074.588807	4038.176219	37.183333
1075.231153	4043.288858	37.200000
1075.713526	4047.691245	37.216667
1076.356374	4052.054707	37.233333
1076.839755	4054.951233	37.250000
1077.483107	4058.563049	37.266667
1077.806516	4060.747373	37.283333
1078.288882	4065.158876	37.300000
1078.932738	4068.018896	37.316667
1079.577100	4070.123494	37.333333
1080.060984	4072.269803	37.350000
1080.545375	4073.659911	37.366667
1080.707796	4076.646363	37.383333
1081.511619	4080.226807	37.400000
1081.996009	4081.618385	37.416667
1082.318398	4085.324285	37.433333
1082.479801	4089.830856	37.450000
1083.121618	4095.733681	37.466667
1083.924927	4100.081470	37.483333
1084.408806	4102.235752	37.500000
1084.731189	4105.950420	37.516667
1085.374017	4110.344569	37.533333
1085.535411	4114.863786	37.550000
1086.338204	4119.982182	37.566667
1087.143543	4121.299101	37.583333
1087.627928	4122.698100	37.600000
1087.951835	4124.138259	37.616667
1088.274722	4127.101109	37.633333
1088.596078	4132.349792	37.650000
1089.399884	4135.954859	37.666667
1089.721747	4140.446380	37.683333
1090.365074	4144.095812	37.700000
1090.848945	4146.261773	37.716667
1091.170804	4150.758567	37.733333
1091.974605	4154.371736	37.750000
1091.976019	4158.190266	37.766667
1092.617293	4164.904528	37.783333
1093.260612	4168.564506	37.800000
1094.063896	4172.950479	37.816667
1094.548274	4174.358755	37.833333
1095.032653	4175.767309	37.850000
1095.356041	4177.982305	37.866667
1095.677889	4182.495305	37.883333
1096.160213	4186.969909	37.900000
1096.964004	4190.598957	37.916667
1097.125884	4194.392021	37.933333
1098.090150	4197.983729	37.950000
1098.574011	4200.163900	37.966667
1098.897395	4202.385223	37.983333
1099.380741	4205.334366	38.000000
1099.863572	4209.052643	38.016667
1100.023903	4215.159108	38.033333
1100.666178	4220.378933	38.050000
1101.309481	4224.063030	38.066667
1102.114292	4226.169072	38.083333
1102.598664	4227.586935	38.100000
1102.761566	4229.855799	38.116667
1103.243874	4234.354774	38.133333
1103.404194	4240.478130	38.150000
1104.367412	4245.632307	38.166667
1104.850748	4248.596283	38.183333
1105.495078	4250.749318	38.200000
1105.817936	4253.755465	38.216667
1106.461747	4256.681956	38.233333
1106.783569	4261.234924	38.250000
1107.427378	4264.164006	38.266667
1107.750751	4266.401801	38.283333
1108.555036	4269.292440	38.300000
1108.556418	4273.158905	38.316667
1109.359146	4278.373261	38.333333
1109.842475	4281.348559	38.350000
1110.003292	4286.728696	38.366667
1110.485062	4292.031436	38.383333
1111.449298	4295.666039	38.400000
1111.932103	4299.422789	38.416667
1112.737940	4299.997664	38.433333
1112.578836	4303.916932	38.450000
1113.542550	4308.333143	38.466667
1113.865915	4310.582249	38.483333
1114.187718	4315.162365	38.500000
1114.991471	4318.847254	38.516667
1115.636309	4320.241538	38.533333
1115.799195	4322.533794	38.550000
1116.442470	4326.262028	38.566667
1116.443314	4330.930160	38.583333
1117.567494	4335.320414	38.600000
1117.569902	4337.656430	38.616667
1118.373126	4342.130196	38.633333
1119.178960	4342.709499	38.650000
1119.180321	4346.606304	38.666667
1119.984588	4349.525103	38.683333
1119.985425	4354.204775	38.700000
1120.627121	4360.288085	38.716667
1121.430861	4363.992487	38.733333
1121.753693	4367.036944	38.750000
1122.879431	4369.101702	38.766667
1123.204880	4368.240624	38.783333
1123.045758	4372.187841	38.800000
1123.849495	4375.897518	38.816667
1123.849799	4381.372530	38.833333
1124.490958	4388.257002	38.850000
1125.294165	4392.756683	38.866667
1125.937419	4396.514832	38.883333
1126.582773	4397.139468	38.900000
1126.745121	4400.234869	38.916667
1127.065843	4406.428619	38.933333
1127.869044	4410.937598	38.950000
1128.030337	4415.607603	38.966667
1129.316544	4417.645968	38.983333
1129.319463	4419.216754	39.000000
1130.124239	4421.375156	39.016667
1130.447059	4424.438963	39.033333
1130.609401	4427.543397	39.050000
1131.573598	4431.237204	39.066667
1131.574935	4435.170225	39.083333
1131.895114	4442.174315	39.100000
1133.019784	4445.834748	39.116667
1133.020589	4450.561548	39.133333
1134.306788	4452.609631	39.150000
1134.470181	4454.146610	39.166667
1134.631988	4458.049400	39.183333
1135.275224	4461.835287	39.200000
1135.757453	4466.451518	39.216667
1136.400686	4470.240947	39.233333
1136.883442	4474.071425	39.250000
1137.527202	4477.073892	39.266667
1138.171491	4479.287034	39.283333
1138.174404	4480.867864	39.300000
1138.816043	4487.036088	39.316667
1139.460331	4489.251806	39.333333
1139.782605	4493.129654	39.350000
1140.427422	4494.555341	39.366667
1140.749694	4498.435423	39.383333
1141.231380	4503.862300	39.400000
1141.713595	4508.499514	39.416667
1141.873794	4514.803771	39.433333
1143.319394	4518.417253	39.450000
1143.484374	4517.584528	39.466667
1143.967649	4520.641124	39.483333
1144.612462	4522.071747	39.500000
1144.292290	4526.914243	39.516667
1145.415870	4532.200734	39.533333
1145.899673	4534.467367	39.550000
1146.382411	4538.324730	39.566667
1147.187698	4539.719346	39.583333
1147.350548	4542.066260	39.600000
1147.833817	4545.131132	39.616667
1148.317618	4547.401126	39.633333
1148.638809	4552.895582	39.650000
1149.282017	4556.721551	39.666667
1149.281718	4563.096436	39.683333
1150.405284	4568.404372	39.700000
1150.889081	4570.680196	39.716667
1151.210263	4576.187777	39.733333
1152.014476	4579.185942	39.750000
1152.177320	4581.542469	39.766667
1152.658974	4587.017231	39.783333
1153.462649	4590.818398	39.800000
1153.623883	4595.576590	39.816667
1154.749044	4598.503522	39.833333
1155.233908	4599.186803	39.850000
1155.557760	4600.709194	39.866667
1156.042624	4601.392701	39.883333
1156.204928	4604.555212	39.900000
1156.847585	4609.203669	39.916667
1157.170363	4612.329823	39.933333
1157.490455	4619.464412	39.950000
1158.453522	4624.844537	39.966667
1158.615283	4628.816871	39.983333
1159.578884	4633.399632	40.000000
1159.741719	4635.769413	40.016667
1160.062876	4641.313984	40.033333
1161.027012	4645.099267	40.050000
1161.349781	4648.237073	40.066667
1161.671473	4652.984357	40.083333
1162.315193	4656.047338	40.100000
1162.797897	4659.954863	40.116667
1163.442154	4662.215129	40.133333
1164.086411	4664.476014	40.150000
1164.731208	4665.932112	40.166667
1164.894577	4667.504359	40.183333
1165.216262	4672.261215	40.200000
1165.697881	4677.787986	40.216667
1166.180038	4682.511138	40.233333
1166.822129	4688.005088	40.250000
1167.627399	4689.426751	40.266667
1167.790765	4691.002806	40.283333
1168.594952	4694.040148	40.300000
1168.917711	4697.194065	40.316667
1169.240469	4700.348992	40.333333
1169.722078	4705.891776	40.350000
1169.882191	4712.323488	40.366667
1170.523186	4719.453396	40.383333
1171.326824	4723.310018	40.400000
1171.809509	4727.245046	40.416667
1172.936268	4727.786683	40.433333
1172.940240	4727.786683	40.450000
1173.421838	4733.345010	40.466667
1173.583570	4737.360929	40.483333
1174.065164	4742.924497	40.500000
1175.189747	4746.714374	40.516667
1175.353107	4748.299719	40.533333
1175.996805	4751.394626	40.550000
1176.642136	4752.053719	40.566667
1176.643931	4755.303009	40.583333
1177.447559	4759.174783	40.600000
1177.447718	4764.865560	40.616667
1178.410729	4770.330122	40.633333
1179.376464	4771.728366	40.650000
1179.379346	4773.355998	40.666667
1179.701542	4777.349803	40.683333
1180.184213	4781.307025	40.700000
1180.504769	4787.748637	40.716667
1181.467771	4793.226368	40.733333
1181.469011	4797.304200	40.750000
1182.432009	4802.787339	40.766667
1182.754744	4805.976351	40.783333
1183.397883	4809.906998	40.800000
1183.881092	4813.060292	40.816667
1184.525324	4815.359435	40.833333
1184.847509	4819.369992	40.850000
1185.652763	4820.815132	40.866667
1185.815019	4824.048039	40.883333
1186.458152	4827.986192	40.900000
1187.102929	4829.470843	40.916667
1187.264635	4833.525102	40.933333
1187.747291	4837.505069	40.950000
1188.068921	4842.343765	40.966667
1188.711500	4847.108953	40.983333
1189.193053	4852.734348	41.000000
1189.996105	4857.466691	41.016667
1190.479853	4859.814837	41.033333
1190.803127	4862.201390	41.050000
1191.446250	4866.155071	41.066667
1191.768971	4869.364526	41.083333
1192.412643	4872.499459	41.100000
1192.734813	4876.532872	41.116667
1193.056430	4881.390126	41.133333
1194.020499	4885.276121	41.150000
1194.344319	4886.846078	41.166667
1194.826409	4891.670604	41.183333
1194.987546	4896.572740	41.200000
1195.950506	4902.112733	41.216667
1196.433143	4906.120217	41.233333
1196.916884	4908.480334	41.250000
1197.239044	4912.527995	41.266667
1198.042629	4916.464470	41.283333
1198.366446	4918.039527	41.300000
1198.688603	4922.091013	41.316667
1199.331157	4926.894798	41.333333
1199.653312	4930.949755	41.350000
1200.778395	4933.992291	41.366667
1200.943396	4933.128388	41.383333
1200.950137	4928.997321	41.400000
1200.799166	4920.777249	41.416667
1200.489927	4909.301901	41.433333
1199.859730	4897.913800	41.450000
1199.551026	4885.639540	41.466667
1199.081838	4873.416723	41.483333
1198.612090	4862.028762	41.500000
1197.983507	4848.230215	41.516667
1197.513193	4837.688152	41.533333
1197.365467	4824.625406	41.550000
1196.415354	4811.768108	41.566667
1196.105491	4801.223954	41.583333
1195.475217	4789.950546	41.600000
1195.166432	4777.798180	41.616667
1194.537231	4764.922024	41.633333
1193.906386	4754.500428	41.650000
1193.436554	4743.238832	41.666667
1192.805151	4733.650338	41.683333
1192.173198	4724.881526	41.700000
1192.023753	4714.385020	41.716667
1191.393416	4703.204863	41.733333
1190.761988	4693.653497	41.750000
1190.452588	4682.418830	41.766667
1189.661212	4672.118508	41.783333
1189.511191	4662.480340	41.800000
1188.719802	4652.200158	41.816667
1188.248818	4642.657645	41.833333
1188.098779	4633.046567	41.850000
1187.468922	4621.151568	41.866667
1187.160006	4609.192823	41.883333
1186.691143	4596.485590	41.900000
1185.740304	4584.710801	41.916667
1185.107731	4576.868754	41.933333
1184.636165	4568.195156	41.950000
1184.164059	4560.327182	41.966667
1183.692483	4551.667844	41.983333
1183.220902	4543.015969	42.000000
1183.070802	4533.497175	42.016667
1182.118848	4523.387495	42.033333
1181.646186	4516.349497	42.050000
1181.335593	4506.894874	42.066667
1180.704573	4496.734263	42.083333
1180.393968	4487.298012	42.100000
1180.084948	4475.495377	42.116667
1179.132424	4466.236414	42.133333
1178.821799	4456.828844	42.150000
1178.029211	4448.337904	42.166667
1177.879051	4438.907792	42.183333
1177.246929	4430.393056	42.200000
1176.936809	4420.231975	42.216667
1176.305730	4410.160409	42.233333
1175.834593	4400.845411	42.250000
1175.202448	4392.364047	42.266667
1174.891777	4383.026351	42.283333
1173.777141	4376.247459	42.300000
1173.947365	4367.589126	42.316667
1173.155772	4357.611993	42.333333
1172.844031	4349.870868	42.350000
1172.535425	4337.449909	42.366667
1171.582289	4329.104228	42.383333
1171.432054	4319.786908	42.400000
1170.800905	4309.819679	42.416667
1170.329704	4300.600709	42.433333
1169.859018	4290.613459	42.450000
1168.905854	4282.309707	42.466667
1168.593553	4275.404614	42.483333
1168.120771	4268.544668	42.500000
1167.488548	4260.180514	42.516667
1167.659222	4250.848662	42.533333
1166.385599	4241.887971	42.550000
1166.072760	4235.784919	42.566667
1165.599959	4228.953945	42.583333
1165.288666	4220.544501	42.600000
1165.139394	4209.789792	42.616667
1164.347690	4199.978591	42.633333
1163.715941	4190.906521	42.650000
1163.245178	4181.034469	42.666667
1162.612387	4173.516284	42.683333
1162.140584	4165.196647	42.700000
1161.507785	4157.691516	42.716667
1161.517403	4149.264162	42.733333
1160.886134	4139.476716	42.750000
1160.093355	4131.268990	42.766667
1159.942481	4122.905776	42.783333
1159.150715	4113.187222	42.800000
1158.677854	4106.446309	42.816667
1158.206010	4098.186983	42.833333
1157.411677	4092.300121	42.850000
1157.420747	4084.691512	42.866667
1156.789431	4074.973124	42.883333
1156.157090	4066.783255	42.900000
1156.167671	4056.920029	42.916667
1155.215887	4046.555874	42.933333
1154.903978	4039.066449	42.950000
1154.272629	4029.396937	42.966667
1153.478771	4022.800619	42.983333
1153.649292	4013.697569	43.000000
1152.536997	4003.425032	43.016667
1152.546524	3995.135347	43.033333
1151.594188	3985.595723	43.050000
1150.638319	3981.329951	43.066667
1150.485843	3975.356398	43.083333
1149.852435	3968.759790	43.100000
1150.021916	3961.210658	43.116667
1149.551992	3950.084674	43.133333
1148.599122	3941.343185	43.150000
1148.448133	3933.151210	43.166667
1147.334272	3925.215943	43.183333
1147.181772	3919.279541	43.200000
1147.032269	3908.868953	43.216667
1146.239848	3900.127621	43.233333
1145.928855	3891.270165	43.250000
1144.975945	3882.588426	43.266667
1144.502968	3876.020415	43.283333
1144.512914	3867.103666	43.300000
1143.559987	3858.446551	43.316667
1143.247973	3851.113608	43.333333
1142.615990	3842.389179	43.350000
1141.982019	3836.633738	43.366667
1141.991444	3828.495820	43.383333
1141.199463	3819.097590	43.400000
1141.049388	3809.541739	43.416667
1140.579337	3798.606107	43.433333
1139.304420	3791.575945	43.450000
1139.313324	3784.215171	43.466667
1138.520326	3776.336065	43.483333
1137.886324	3770.625902	43.500000
1137.734738	3763.324977	43.516667
1137.262191	3756.114595	43.533333
1136.791113	3746.712255	43.550000
1136.319538	3738.052123	43.566667
1135.365542	3730.990316	43.583333
1135.051986	3725.957609	43.600000
1134.418451	3719.551981	43.616667
1134.105379	3713.796353	43.633333
1133.794260	3705.127817	43.650000
1133.161689	3697.281408	43.666667
1133.333456	3686.319345	43.683333
1132.220412	3677.164570	43.700000
1132.069746	3668.490794	43.716667
1131.117167	3659.313647	43.733333
1130.323118	3653.002529	43.750000
1130.170495	3647.249904	43.766667
1129.376924	3640.224759	43.783333
1129.546221	3632.949423	43.800000
1129.076019	3622.240083	43.816667
1127.961960	3614.600822	43.833333
1127.488361	3608.960246	43.850000
1127.015243	3602.603267	43.866667
1126.541639	3596.971117	43.883333
1126.390917	3588.380098	43.900000
1125.597312	3581.406524	43.916667
1125.447060	3572.113811	43.933333
1124.814885	3563.677351	43.950000
1124.343663	3554.490474	43.966667
1123.871954	3546.029403	43.983333
1123.239761	3537.620287	44.000000

1123.088998	3529.090575	44.016667
1122.136313	3520.072258	44.033333
1121.503147	3513.115674	44.050000
1121.029978	3506.834109	44.066667
1120.396326	3500.600824	44.083333
1120.083630	3494.285983	44.100000
1119.771882	3486.555306	44.116667
1118.816786	3481.134706	44.133333
1118.504554	3474.126098	44.150000
1118.031364	3467.875660	44.166667
1117.719125	3460.878674	44.183333
1117.085923	3453.974722	44.200000
1116.613196	3447.033485	44.216667
1116.461896	3439.305121	44.233333
1115.831517	3428.187813	44.250000
1115.359247	3420.564660	44.266667
1115.048866	3410.793861	44.283333
1114.095147	3403.318548	44.300000
1113.783811	3394.973681	44.316667
1112.989620	3388.873830	44.333333
1112.516385	3382.691568	44.350000
1112.203625	3376.470523	44.366667
1111.570373	3369.641936	44.383333
1111.097127	3363.475215	44.400000
1110.464335	3355.959520	44.416667
1110.151561	3349.760025	44.433333
1109.518760	3342.257901	44.450000
1109.206446	3335.372372	44.466667
1108.573168	3328.580886	44.483333
1107.939421	3322.491455	44.500000
1107.627095	3315.623717	44.516667
1107.636189	3307.979320	44.533333
1106.844740	3297.787304	44.550000
1106.211904	3290.336689	44.566667
1105.739543	3282.849397	44.583333
1104.945291	3276.841419	44.600000
1104.632474	3270.705911	44.616667
1104.321042	3262.503433	44.633333
1103.848200	3255.733742	44.650000
1103.376740	3246.902462	44.666667
1102.583852	3238.858581	44.683333
1101.949594	3233.530536	44.700000
1101.475813	3228.162114	44.716667
1101.002030	3222.797652	44.733333
1101.011063	3215.244702	44.750000
1100.057672	3207.280165	44.766667
1100.067153	3199.057653	44.783333
1098.953270	3191.155465	44.800000
1098.640406	3185.089976	44.816667
1098.328454	3177.663501	44.833333
1097.695538	3170.333611	44.850000
1097.223096	3162.966556	44.866667
1096.750650	3155.606918	44.883333
1096.278198	3148.254699	44.900000
1095.806197	3140.230354	44.916667
1095.012320	3133.662035	44.933333
1094.538945	3127.688714	44.950000
1093.744152	3122.487837	44.966667
1093.269409	3118.556215	44.983333
1093.116984	3112.506033	45.000000
1092.644050	3105.874112	45.016667
1092.332497	3097.852065	45.033333
1092.020486	3090.513692	45.050000
1090.906974	3082.059057	45.066667
1090.432215	3078.150110	45.083333
1090.280220	3071.460141	45.100000
1089.808161	3063.521229	45.116667
1089.497027	3054.874326	45.133333
1088.864926	3046.327903	45.150000
1088.071439	3039.177351	45.166667
1087.598459	3032.613574	45.183333
1086.804067	3026.815374	45.200000
1086.490215	3022.223775	45.216667
1086.016330	3017.012222	45.233333
1085.542888	3011.136982	45.250000
1085.391298	3003.842138	45.266667
1084.597782	2996.735858	45.283333
1084.124775	2990.212059	45.300000
1083.330804	2983.785139	45.316667
1083.177859	2978.511927	45.333333
1083.025802	2971.914501	45.350000
1082.394077	2962.806420	45.366667
1081.922380	2954.327185	45.383333
1081.289753	2946.565375	45.400000
1080.495311	2940.840921	45.416667
1080.021827	2935.030414	45.433333
1079.548339	2929.224893	45.450000
1079.074848	2923.424357	45.466667
1078.922756	2916.878671	45.483333
1077.969139	2909.251032	45.500000
1077.656557	2902.764440	45.516667
1076.861649	2897.734989	45.533333
1076.547741	2893.228905	45.550000
1076.074229	2887.459394	45.566667
1075.762072	2880.338223	45.583333
1075.610830	2872.523907	45.600000
1074.818974	2862.940176	45.616667
1074.185402	2856.589302	45.633333
1073.552262	2849.592121	45.650000
1072.917808	2844.558059	45.666667
1072.765665	2838.087259	45.683333
1072.293865	2829.762423	45.700000
1071.499791	2823.489611	45.716667
1071.187154	2817.084905	45.733333
1070.231721	2812.168203	45.750000
1069.917339	2808.368150	45.766667
1069.604259	2802.626118	45.783333
1069.130261	2797.582607	45.800000
1068.818474	2789.909359	45.816667
1068.507114	2781.598831	45.833333
1067.713873	2774.082427	45.850000
1067.402068	2766.436191	45.866667
1066.447471	2760.271522	45.883333
1066.134794	2753.927936	45.900000
1065.501150	2747.683083	45.916667
1065.348516	2741.947494	45.933333
1064.876205	2734.384945	45.950000
1064.243407	2726.877597	45.966667
1063.609317	2721.299328	45.983333
1062.975652	2715.086497	46.000000
1062.019737	2710.889914	46.016667
1062.187187	2706.371021	46.033333
1061.713993	2700.126489	46.050000
1061.402130	2692.566664	46.066667
1060.930634	2683.788958	46.083333
1060.137315	2676.387909	46.100000
1059.664527	2669.537592	46.116667
1059.030403	2664.010408	46.133333
1058.396275	2658.488247	46.150000
1058.565399	2651.470662	46.166667
1057.451092	2644.201509	46.183333
1057.298397	2638.556807	46.200000
1056.183233	2632.566203	46.216667
1056.029685	2628.193986	46.233333
1055.395113	2623.334596	46.250000
1054.920598	2619.062475	46.266667
1054.928790	2612.763825	46.283333
1054.457641	2603.467787	46.300000
1053.664258	2596.162842	46.316667
1053.351893	2589.353135	46.333333
1052.236696	2583.412365	46.350000
1051.921804	2580.373846	46.366667
1051.609008	2574.207379	46.383333
1051.296208	2568.046989	46.400000
1050.985077	2559.394978	46.416667
1050.031176	2552.190336	46.433333
1049.396564	2547.392220	46.450000
1048.922430	2542.550929	46.466667
1047.966432	2538.477249	46.483333
1048.132969	2535.319979	46.500000
1047.660078	2528.624672	46.516667
1047.186765	2522.557328	46.533333
1047.035658	2514.541849	46.550000
1046.081721	2507.392106	46.566667
1045.768876	2501.298855	46.583333
1044.974581	2495.353725	46.600000
1044.661315	2489.889998	46.616667
1044.509352	2483.150339	46.633333
1043.715871	2475.991688	46.650000
1043.242935	2469.362271	46.666667
1042.448619	2463.449848	46.683333
1041.813546	2459.338599	46.700000
1041.500257	2453.907870	46.716667
1040.865180	2449.803571	46.733333
1040.711956	2444.946860	46.750000
1040.078925	2437.787994	46.766667
1039.605141	2432.424643	46.783333
1039.131353	2427.066262	46.800000
1038.657972	2421.102450	46.816667
1038.024104	2415.192434	46.833333
1037.711196	2409.193186	46.850000
1037.077727	2402.686932	46.866667
1036.925293	2396.652727	46.883333
1035.810776	2389.696745	46.900000
1035.335742	2386.198236	46.916667
1035.182890	2380.787315	46.933333
1034.387700	2376.178356	46.950000
1034.396135	2369.518556	46.966667
1033.763446	2361.848766	46.983333
1032.968246	2357.255656	47.000000
1032.816184	2350.665056	47.016667
1031.860899	2345.526673	47.033333
1031.386654	2340.851553	47.050000
1031.073291	2335.530751	47.066667
1030.438156	2331.513124	47.083333
1030.446556	2324.903919	47.100000
1029.492059	2318.590347	47.116667
1029.339967	2312.043848	47.133333
1028.545942	2305.697107	47.150000
1027.911192	2301.103504	47.166667
1027.758287	2295.771891	47.183333
1026.963849	2290.040981	47.200000
1026.811336	2284.123451	47.216667
1026.016890	2278.404865	47.233333
1025.703089	2273.737966	47.250000
1025.229999	2267.339414	47.266667
1024.596023	2261.590426	47.283333
1024.122128	2256.392612	47.300000
1023.648627	2250.606971	47.316667
1023.015036	2244.283685	47.333333
1022.701612	2239.054028	47.350000
1022.067616	2233.335139	47.366667
1021.433221	2228.212780	47.383333
1021.280269	2222.950058	47.400000
1020.486174	2216.707621	47.416667
1020.173127	2210.915704	47.433333
1019.539111	2205.226909	47.450000
1019.065180	2200.083129	47.466667
1018.430763	2194.992881	47.483333
1017.795557	2191.080448	47.500000
1017.803456	2185.218788	47.516667
1017.330689	2178.338592	47.533333
1016.697041	2172.100274	47.550000
1016.062606	2167.037127	47.566667
1015.428167	2161.978984	47.583333
1015.114300	2157.411265	47.600000
1014.640728	2151.731467	47.616667
1013.845796	2146.737036	47.633333
1013.692792	2141.552498	47.650000
1013.058726	2135.938630	47.666667
1012.745621	2130.233249	47.683333
1012.111935	2124.052278	47.700000
1011.477856	2118.457433	47.716667
1011.003093	2114.554482	47.733333
1010.850843	2108.245666	47.750000
1010.056656	2102.139916	47.766667
1009.421789	2097.721871	47.783333
1009.107884	2093.209825	47.800000
1008.795134	2086.975361	47.816667
1008.000160	2082.044803	47.833333
1007.526148	2077.021185	47.850000
1006.891266	2072.625334	47.866667
1006.738597	2066.939732	47.883333
1006.104476	2061.407487	47.900000
1005.952566	2054.590176	47.916667
1004.997853	2048.598501	47.933333
1004.684685	2042.988126	47.950000
1003.889681	2038.101438	47.966667
1003.575360	2034.211184	47.983333
1003.102079	2028.096930	48.000000
1002.949759	2021.891498	48.016667
1001.995400	2015.372254	48.033333
1001.520584	2011.548822	48.050000
1000.725179	2007.260408	48.066667
1000.570946	2003.911015	48.083333
999.936399	1999.014426	48.100000
999.140609	1995.302703	48.116667
998.987126	1990.831611	48.133333
998.673159	1986.413795	48.150000
998.361077	1979.181332	48.166667
997.887751	1973.134221	48.183333
996.932971	1967.242972	48.200000
996.619365	1962.284397	48.216667
996.306508	1956.208572	48.233333
995.832788	1950.750022	48.250000
995.199331	1944.227652	48.266667
994.725601	1938.782534	48.283333
994.413099	1932.177021	48.300000
993.457911	1926.894273	48.316667
992.822192	1923.747486	48.333333
992.347701	1919.439328	48.350000
991.712351	1915.741257	48.366667
991.718933	1911.847340	48.383333
991.245551	1905.883479	48.400000
990.289227	1902.295706	48.416667
990.296916	1896.748979	48.433333
989.662296	1891.961246	48.450000
989.670718	1885.319601	48.466667
988.555751	1879.035548	48.483333
988.081603	1874.216166	48.500000
987.607451	1869.401735	48.516667
986.812329	1864.692088	48.533333
986.658768	1860.337963	48.550000
986.185343	1854.438515	48.566667
985.711178	1849.644430	48.583333
985.237744	1843.758383	48.600000
984.121270	1839.723242	48.616667
983.645627	1837.134551	48.633333
983.491316	1833.900068	48.650000
982.855920	1830.271081	48.666667
982.863554	1824.805930	48.683333
982.230347	1817.910581	48.700000
981.917734	1811.469952	48.716667
981.283784	1805.682352	48.733333
980.488254	1801.582749	48.750000
980.174899	1796.250529	48.766667
979.540572	1791.024794	48.783333
979.226483	1786.788344	48.800000
978.914205	1779.849576	48.816667
978.119382	1774.693054	48.833333
977.485039	1769.492407	48.850000
976.849969	1765.376564	48.866667
976.375019	1761.753278	48.883333
975.900428	1757.594488	48.900000
975.264990	1754.028019	48.916667
975.111001	1750.313443	48.933333
974.637122	1745.091234	48.950000
974.163240	1739.875118	48.966667
973.529228	1734.179741	48.983333
972.733293	1730.683131	49.000000
972.739775	1726.937199	49.016667
972.266594	1720.673913	49.033333
971.631851	1716.070599	49.050000
971.319143	1709.772107	49.066667
970.363781	1704.749134	49.083333
970.049281	1701.125467	49.100000
969.575364	1695.961203	49.116667
968.779408	1692.496638	49.133333
968.786580	1687.721174	49.150000
968.152877	1681.564059	49.166667
967.518106	1677.002673	49.183333
967.365491	1671.237223	49.200000
966.088423	1667.417618	49.216667
966.094517	1664.251187	49.233333
965.460086	1659.181594	49.250000
965.145913	1655.069408	49.266667
964.672312	1649.434190	49.283333
963.715845	1646.059829	49.300000
963.562148	1641.909511	49.316667
963.248667	1636.765163	49.333333
962.453379	1632.303190	49.350000
962.461560	1626.022426	49.366667
961.506130	1621.100482	49.383333
961.192283	1616.502882	49.400000
960.397329	1611.541718	49.416667
960.082777	1607.996127	49.433333
959.769617	1602.372232	49.450000
958.974652	1597.428238	49.466667
958.821272	1592.805325	49.483333
958.187478	1586.785148	49.500000
957.230976	1583.464672	49.516667
957.237722	1579.323358	49.533333
956.442392	1574.924440	49.550000
956.128165	1570.893549	49.566667
955.654143	1565.885962	49.583333
955.018942	1561.966118	49.600000
954.705051	1557.433082	49.616667
953.910049	1552.544324	49.633333
953.274151	1549.665232	49.650000
952.959563	1546.172547	49.666667
952.163521	1542.836536	49.683333
952.330726	1538.683606	49.700000
951.696878	1532.743305	49.716667
950.901170	1528.907656	49.733333
950.908566	1523.798005	49.750000
949.952710	1519.512381	49.766667
949.638447	1515.536028	49.783333
949.004235	1510.139086	49.800000
948.689625	1506.680490	49.816667
948.537199	1500.633559	49.833333
947.421860	1494.903826	49.850000
946.946417	1492.016585	49.866667
946.632814	1487.055066	49.883333
945.836737	1483.770903	49.900000
945.522788	1479.324871	49.916667
944.887191	1475.996136	49.933333
944.733720	1471.507334	49.950000
944.259615	1466.622842	49.966667
943.464537	1461.847557	49.983333
943.311393	1456.872098	50.000000
942.516643	1451.607283	50.016667
942.041850	1447.750144	50.033333
941.728210	1442.843847	50.050000
940.932776	1438.598650	50.066667
940.618124	1435.202688	50.083333
939.823019	1430.467244	50.100000
939.508028	1427.577230	50.116667
939.355189	1422.146630	50.133333
938.560073	1417.427701	50.150000
938.085590	1413.108285	50.166667
937.611103	1408.793802	50.183333
936.975463	1405.527828	50.200000
936.661455	1401.170333	50.216667
935.865990	1396.973224	50.233333
935.711797	1393.562495	50.250000
935.237957	1388.282827	50.266667
934.603297	1383.555532	50.283333
934.128787	1379.275053	50.300000
933.493790	1375.051426	50.316667
933.018944	1371.272408	50.333333
932.383611	1367.549247	50.350000
931.908432	1364.268730	50.366667
931.433250	1360.991213	50.383333
931.118879	1357.174880	50.400000
930.805162	1352.383907	50.416667
930.171125	1346.725963	50.433333
929.696587	1342.488258	50.450000
929.061887	1337.820194	50.466667
928.587341	1333.592909	50.483333
927.952308	1329.422660	50.500000
927.798726	1325.101005	50.516667
926.843041	1320.559788	50.533333
926.528318	1317.269874	50.550000
926.214565	1312.530432	50.566667
925.419031	1308.437110	50.583333
925.265756	1303.656983	50.600000
924.469890	1300.056552	50.616667
923.834185	1296.889838	50.633333
923.519447	1293.621642	50.650000
923.044866	1289.446445	50.666667
922.731090	1284.743397	50.683333
922.096018	1280.630889	50.700000
921.621427	1276.471018	50.716667
920.986990	1271.410872	50.733333
920.350946	1268.749093	50.750000
919.715221	1265.611597	50.766667
919.560628	1262.797512	50.783333
919.086024	1258.659044	50.800000
918.933024	1253.467825	50.816667
918.138398	1248.017942	50.833333
917.664100	1243.421894	50.850000
916.868509	1239.411336	50.866667
916.232766	1236.301298	50.883333
916.078158	1233.510455	50.900000
915.603847	1228.933892	50.916667
914.807611	1225.886253	50.933333
914.492829	1222.684026	50.950000
913.857391	1219.118080	50.966667
913.381803	1216.446201	50.983333
912.906845	1212.834547	51.000000
912.431885	1209.226795	51.016667
912.117722	1205.100387	51.033333
911.643071	1201.031505	51.050000
911.007931	1197.020199	51.066667
910.854557	1192.387587	51.083333
910.058925	1188.439375	51.100000
909.744745	1184.338044	51.116667
908.948794	1180.866392	51.133333
908.795093	1176.721617	51.150000
908.160245	1172.274406	51.166667
907.364285	1168.816013	51.183333
907.210574	1164.685924	51.200000
906.736201	1160.202372	51.216667
905.940542	1156.293844	51.233333
905.465540	1152.747470	51.250000
904.990536	1149.204994	51.266667
904.515220	1146.128349	51.283333
904.201315	1141.617469	51.300000
903.566126	1137.679202	51.316667
902.930625	1134.206194	51.333333
902.455299	1131.144073	51.350000
902.301866	1126.600858	51.366667
901.666972	1122.222511	51.383333
901.031767	1118.308405	51.400000
900.396252	1114.856908	51.416667
899.920913	1111.813568	51.433333
899.767156	1107.753618	51.450000
899.453826	1102.383265	51.466667
898.658424	1098.091448	51.483333
898.183989	1093.699612	51.500000
897.387970	1090.328543	51.516667
896.912616	1087.309084	51.533333
896.437563	1083.839174	51.550000
895.640930	1081.385401	51.566667
895.647026	1078.215522	51.583333
895.172572	1073.851660	51.600000
894.376235	1070.954759	51.616667
894.222444	1066.945912	51.633333
893.265919	1063.658486	51.650000
893.111518	1060.559094	51.666667
892.475658	1057.622323	51.683333
892.161369	1053.683575	51.700000
892.008465	1048.350737	51.716667
891.213312	1043.687443	51.733333
890.417255	1040.373281	51.750000
890.263138	1036.849825	51.766667
889.467374	1033.097167	51.783333
889.313551	1029.136117	51.800000
888.518079	1024.948156	51.816667
888.042681	1021.993543	51.833333
887.567579	1018.597624	51.850000
886.771503	1015.312401	51.866667
886.456287	1012.757605	51.883333
886.141960	1008.876081	51.900000
885.667440	1004.610573	51.916667
885.192916	1000.351122	51.933333
884.236340	997.140435	51.950000
883.921114	994.601313	51.966667
883.445695	991.677432	51.983333
882.970274	988.756539	52.000000
882.816118	985.292048	52.016667
882.181678	980.236369	52.033333
881.546057	976.942182	52.050000
881.232286	972.231552	52.066667
880.436173	969.000218	52.083333
880.121223	966.048729	52.100000
879.485884	962.334912	52.116667
879.010152	959.879657	52.133333
878.696070	955.631524	52.150000
878.060430	952.366137	52.166667
877.746342	948.128881	52.183333
876.950501	944.492315	52.200000
875.993010	942.647190	52.216667
875.837947	940.535103	52.233333
875.362491	937.666664	52.250000
875.208006	934.693744	52.266667
874.733414	930.536281	52.283333
874.098043	926.869637	52.300000
873.623443	922.723696	52.316667
872.988065	919.067463	52.333333
872.833854	915.684106	52.350000
872.037984	912.090996	52.366667
871.723569	908.341329	52.383333
871.249237	903.794953	52.400000
870.453357	900.217770	52.416667
869.977873	897.391052	52.433333
869.663444	893.660982	52.450000
868.706213	891.428577	52.466667
868.712466	888.024139	52.483333
867.756085	884.522352	52.500000
867.601278	882.028748	52.516667
867.287120	877.895535	52.533333
866.169676	875.308158	52.550000
866.175916	871.922973	52.566667
865.540209	868.757625	52.583333
865.385958	865.434128	52.600000
864.751093	861.012434	52.616667
864.115660	857.439459	52.633333
863.640709	853.817353	52.650000
863.005550	849.834605	52.666667
862.369264	847.534428	52.683333
861.732976	845.236471	52.700000
861.257173	842.886620	52.716667
861.423593	839.904338	52.733333
860.788699	835.525403	52.750000
860.153522	831.570619	52.766667
859.839312	827.513559	52.783333
858.561346	825.034845	52.800000
858.406224	823.010729	52.816667
858.091728	819.381952	52.833333
857.295214	816.749713	52.850000
857.140643	813.903561	52.866667
856.505166	810.395789	52.883333
856.351144	806.730159	52.900000
855.555450	802.874013	52.916667
854.758924	800.259785	52.933333
854.604342	797.431370	52.950000
853.647325	794.877468	52.966667
853.331702	792.930952	52.983333
853.016903	789.754484	53.000000
852.541614	786.636223	53.016667
852.387570	783.003709	53.033333
851.752612	778.721610	53.050000
850.796129	775.371884	53.066667
850.159796	773.141506	53.083333
849.683674	771.266414	53.100000
849.368039	769.338436	53.116667
849.052947	766.598272	53.133333
848.898884	762.993992	53.150000
848.103416	758.801097	53.166667
847.628101	755.721681	53.183333
846.992298	752.700638	53.200000
846.356221	750.087682	53.216667
846.041115	747.368704	53.233333
845.887305	743.388314	53.250000
845.091274	740.034699	53.266667
844.776700	736.522372	53.283333
843.980662	733.178633	53.300000
843.504789	730.934035	53.316667
843.190206	727.434771	53.333333
842.715133	723.994988	53.350000
841.919084	720.669354	53.366667
841.603956	717.982979	53.383333
840.807366	715.463498	53.400000
840.492235	712.783071	53.416667
839.856128	710.214936	53.433333
839.701479	707.485767	53.450000
839.226652	703.677993	53.466667
838.430052	701.174790	53.483333
838.115440	697.718499	53.500000
837.640073	694.717224	53.516667
837.004217	691.774574	53.533333
836.368095	689.230335	53.550000
836.052943	686.579564	53.566667
835.577567	683.592860	53.583333
834.941701	680.664825	53.600000
834.466056	678.078596	53.616667
834.151159	675.048247	53.633333
833.676297	671.293145	53.650000
833.040421	668.381157	53.666667
832.725515	665.363364	53.683333
832.090156	661.678846	53.700000
831.293523	659.224030	53.716667
831.138835	656.552670	53.733333
830.181712	654.158753	53.750000
830.026760	651.881756	53.766667
829.551353	648.940657	53.783333
829.236690	645.561017	53.800000
828.761796	641.854313	53.816667
828.286897	638.153645	53.833333
827.329760	635.781182	53.850000
826.693077	634.072716	53.866667
826.538111	631.815620	53.883333
826.062686	628.901192	53.900000
825.587001	626.374880	53.916667
825.272316	623.028936	53.933333
824.475909	620.236212	53.950000
824.160961	617.282247	53.966667
823.364293	614.879651	53.983333
823.209571	612.259767	54.000000
822.734384	608.990095	54.016667
822.098452	606.161298	54.033333
821.623259	602.900890	54.050000
821.308549	599.590248	54.066667
820.833604	595.960354	54.083333
820.037173	593.204188	54.100000
819.722200	590.286441	54.116667
818.925764	587.538084	54.133333
818.289559	585.115792	54.150000
817.974327	582.586095	54.166667
817.337866	580.546326	54.183333
817.022377	578.398332	54.200000
816.225678	576.042363	54.216667
815.910187	573.899104	54.233333
815.594945	571.382968	54.250000
814.958727	568.980301	54.266667
814.482995	566.525359	54.283333
813.686286	564.183949	54.300000
813.691510	562.315908	54.316667
813.216521	558.750184	54.333333
812.741529	555.190491	54.350000
812.426521	552.324947	54.366667
811.309076	549.739946	54.383333
810.833079	547.679267	54.400000
810.517816	545.194873	54.416667
809.881328	543.194295	54.433333
809.726549	540.660030	54.450000
809.090801	537.556341	54.466667
808.615289	534.770856	54.483333
808.140022	531.621033	54.500000
807.504018	528.899197	54.516667
806.867766	526.548504	54.533333
806.552485	524.089910	54.550000
805.755496	522.167103	54.566667
805.761186	519.603092	54.583333
804.643220	517.796003	54.600000
804.809393	515.181985	54.616667
804.173618	512.118692	54.633333
803.698083	509.369054	54.650000
803.383763	505.476633	54.666667
802.427004	502.539661	54.683333
801.790243	500.947186	54.700000
801.313969	499.300701	54.716667
800.677206	497.711302	54.733333
800.682876	495.177551	54.750000
799.886350	492.563299	54.766667
799.409829	491.285434	54.783333
798.934032	488.926449	54.800000
798.297745	486.626039	54.816667
798.303406	484.106157	54.833333
797.667597	481.093099	54.850000
797.191792	478.746823	54.866667
796.555977	475.742497	54.883333
795.919680	473.458671	54.900000
795.764842	471.010822	54.916667
795.450472	467.193987	54.933333
794.493670	464.319562	54.950000
794.338825	461.883065	54.966667
793.060567	459.839525	54.983333
793.065967	457.708234	55.000000
792.268930	455.857757	55.016667
791.953115	454.196615	55.033333
791.638248	451.121164	55.050000
791.001929	448.868819	55.066667
790.365372	446.972487	55.083333
790.049789	444.966796	55.100000
789.413465	442.722553	55.116667
789.258601	440.313895	55.133333
788.462021	437.780003	55.150000
788.307153	435.377659	55.166667
787.510803	432.500617	55.183333
787.195209	430.510874	55.200000
786.719828	427.530330	55.216667
786.083723	424.959545	55.233333
785.447148	423.089881	55.250000
785.292267	420.706486	55.266667
784.335181	418.257678	55.283333
784.180296	415.880605	55.300000
783.222739	414.132993	55.316667
782.906899	412.510600	55.333333
782.431034	410.252975	55.350000
781.954703	408.690147	55.366667
781.639322	406.381671	55.383333
781.003196	403.842946	55.400000
780.206117	402.053380	55.416667
780.050987	400.042145	55.433333
779.414624	397.857040	55.450000
779.099003	395.906484	55.466667
778.623353	393.327783	55.483333
777.986984	391.151604	55.500000
777.671587	388.866371	55.516667
777.035443	386.354335	55.533333
776.880758	383.678062	55.550000
776.405552	380.436188	55.566667
775.448425	378.048856	55.583333
774.972301	376.176824	55.600000
774.175202	374.419140	55.616667
773.698393	373.569172	55.633333
773.543242	371.590444	55.650000
772.906626	369.782174	55.666667
772.912411	367.075307	55.683333
771.794556	365.102762	55.700000
771.478684	363.527279	55.716667
771.002549	361.672374	55.733333
770.526413	359.819653	55.750000
770.371926	356.848124	55.766667
769.735748	354.385560	55.783333
769.260056	351.870703	55.800000
768.784585	349.025033	55.816667
767.987911	346.630776	55.833333
767.832962	344.349300	55.850000
767.036061	342.295621	55.866667
766.238711	340.910864	55.883333
766.083534	338.970041	55.900000
765.286405	337.256329	55.916667
764.649539	335.820554	55.933333
764.815555	333.441762	55.950000
763.858156	331.459712	55.966667
763.702971	329.530086	55.983333
762.745346	327.884012	56.000000
762.429229	326.675298	56.016667
761.953285	324.534235	56.033333
761.637607	322.669223	56.050000
761.322589	319.819455	56.066667
760.686152	317.744003	56.083333
760.049713	315.671531	56.100000
759.734467	313.161760	56.116667
759.098024	311.095650	56.133333
758.782992	308.266460	56.150000
757.825569	306.319876	56.166667
757.348952	305.184734	56.183333
757.033476	303.017340	56.200000
756.236100	301.672405	56.216667
756.080891	299.778525	56.233333
755.444000	298.380556	56.250000
754.807543	296.335712	56.266667
754.331137	294.884993	56.283333
753.854514	293.759369	56.300000
753.378323	291.988119	56.316667
753.384027	289.404066	56.333333
752.426585	287.484857	56.350000
752.271580	285.286349	56.366667
751.635110	283.260180	56.383333
750.998638	281.236989	56.400000
750.683140	279.103797	56.416667
750.207152	277.030045	56.433333
749.731162	274.959253	56.450000
749.094896	272.628553	56.466667
748.618901	270.564108	56.483333
748.142905	268.502623	56.500000
747.345718	266.875307	56.516667
746.869292	265.454926	56.533333
746.392865	264.036066	56.550000
746.077138	262.244942	56.566667
745.440433	260.569122	56.583333
744.643027	259.268575	56.600000
744.326659	258.432409	56.616667
744.010715	256.964571	56.633333
743.534705	254.923450	56.650000
743.219181	252.828684	56.666667
742.743378	250.478705	56.683333
741.946386	248.560113	56.700000
741.470157	246.845178	56.716667
741.154415	245.075787	56.733333
740.678394	243.051996	56.750000
740.202370	241.031164	56.766667
739.726554	238.700979	56.783333
739.250526	236.686481	56.800000
738.132127	235.524660	56.816667
737.815958	234.392272	56.833333
737.179021	233.063184	56.850000
736.862851	231.932983	56.866667
736.547304	229.872406	56.883333
736.231547	228.124741	56.900000
735.434532	226.239784	56.916667
735.118773	224.496827	56.933333
734.321547	222.926235	56.950000
733.844883	221.861487	56.966667
733.529120	220.124335	56.983333
732.892172	218.810782	57.000000
732.897382	216.964097	57.016667
732.261049	214.732244	57.033333
731.785203	212.447486	57.050000
730.827684	210.643138	57.066667
730.190525	209.645884	57.083333
729.713853	208.592821	57.100000
729.397873	207.178464	57.116667
729.081892	205.765612	57.133333
728.605626	204.106268	57.150000
727.969075	202.201531	57.166667
727.492398	201.155036	57.183333
726.855640	199.558709	57.200000
726.539654	198.154321	57.216667
726.223869	196.448304	57.233333
725.587107	194.858163	57.250000
725.432213	192.494965	57.266667
724.474673	190.721775	57.283333
723.837704	189.440799	57.300000
723.361222	188.104466	57.316667
722.724049	187.127518	57.333333
722.729029	185.623237	57.350000
722.252946	183.690448	57.366667
721.455685	182.174338	57.383333
721.139886	180.489676	57.400000
720.342621	178.977954	57.416667
720.026619	177.596518	57.433333
719.550528	175.676424	57.450000
719.074036	174.355549	57.466667
718.597742	172.738328	57.483333
717.960759	171.477746	57.500000
717.644950	169.807559	57.516667
717.008164	168.253481	57.533333
716.210491	167.351594	57.550000
716.055166	165.630228	57.566667
715.578666	164.320877	57.583333
715.102363	162.717458	57.600000
714.465372	161.468444	57.616667
713.828380	160.220958	57.633333
713.672655	159.098638	57.650000
713.036055	157.265183	57.666667
712.399060	156.022565	57.683333
712.083238	154.373742	57.700000
711.285556	153.484872	57.716667
711.130022	152.075696	57.733333
710.493219	150.546402	57.750000
710.016707	149.254643	57.766667
709.861562	147.266116	57.783333
709.064266	145.800434	57.800000
708.587751	144.514122	57.816667
707.790258	143.343495	57.833333
707.474033	142.293924	57.850000
707.158392	140.373854	57.866667
706.521578	138.860940	57.883333
706.044863	137.872582	57.900000
705.247364	136.709899	57.916667
704.770454	136.013027	57.933333
704.614713	134.913361	57.950000
703.977893	133.408478	57.966667
703.661856	132.079901	57.983333
703.025034	130.579020	58.000000
702.709187	128.966030	58.016667
702.072362	127.469511	58.033333
701.595832	126.205028	58.050000
701.119493	124.655349	58.066667
700.643152	123.107844	58.083333
700.006130	121.905686	58.100000
699.850572	120.533499	58.116667
699.053250	119.106174	58.133333
698.576904	117.566651	58.150000
697.939878	116.371183	58.166667
697.142171	115.518883	58.183333
696.665441	114.553149	58.200000
696.509686	113.473954	58.216667
695.872466	112.567383	58.233333
695.716900	111.206640	58.250000
695.080058	109.735976	58.266667
694.442836	108.833066	58.283333
694.126778	107.534079	58.300000
693.489743	106.351095	58.316667
693.013196	105.112380	58.333333
692.376159	103.932441	58.350000
692.059909	102.920870	58.366667
691.422870	101.743670	58.383333
690.785642	100.848829	58.400000
690.308902	99.897691	58.416667
689.992461	99.170656	58.433333
689.355419	97.998337	58.450000
688.878677	97.050122	58.466667
688.401934	96.102881	58.483333
687.764702	95.213916	58.500000
687.448633	93.932169	58.516667
686.811213	93.324313	58.533333
686.655444	92.266342	58.550000
686.179071	90.767161	58.566667
685.702510	89.548166	58.583333
685.065646	88.110304	58.600000
684.428409	87.229395	58.616667
683.951659	86.292125	58.633333
683.314421	85.413176	58.650000
682.837670	84.477858	58.666667
682.521592	83.209705	58.683333
681.884351	82.333932	58.700000
681.407413	81.677747	58.716667
680.930660	80.746324	58.733333
680.453906	79.815875	58.750000
679.977151	78.886399	58.766667
679.500579	77.682885	58.783333
679.024007	76.480885	58.800000
678.707739	75.497417	58.816667
678.070676	74.355536	58.833333
677.433429	73.489050	58.850000
677.117342	72.235100	58.866667
676.640765	71.040065	58.883333
676.003698	69.903961	58.900000
675.526937	68.984691	58.916667
674.889504	68.396373	58.933333
674.573229	67.421382	58.950000
673.935977	66.562226	58.966667
673.619702	65.589173	58.983333
673.142937	64.674528	59.000000
672.666353	63.489503	59.016667
672.189769	62.305991	59.033333
671.392025	61.509662	59.050000
670.915257	60.599397	59.066667
670.438308	59.960437	59.083333
670.122027	58.994408	59.100000
669.484588	58.414202	59.116667
668.687022	57.352636	59.133333
668.370379	56.928439	59.150000
668.054277	55.696561	59.166667
667.256347	55.176614	59.183333
666.779575	54.273421	59.200000
666.302442	53.908432	59.216667
665.986157	52.949203	59.233333
665.348715	52.374173	59.250000
665.032429	51.416641	59.266667
664.716142	50.460074	59.283333
664.078878	49.619503	59.300000
663.441613	48.779913	59.316667
662.964836	47.883779	59.333333
662.488058	46.988618	59.350000
662.011279	46.094429	59.366667
661.052678	45.906606	59.383333
660.896519	45.431360	59.400000
660.419917	44.273070	59.416667
659.782470	43.705422	59.433333
659.305511	43.080783	59.450000
658.989040	42.399144	59.466667
658.512080	41.775604	59.483333
658.195786	40.829959	59.500000
657.398026	40.057966	59.516667
657.242219	39.056693	59.533333
656.604769	38.493469	59.550000
656.127984	37.609030	59.566667
655.811687	36.667985	59.583333
654.692946	36.015818	59.600000
654.697448	35.225025	59.616667
654.060173	34.401825	59.633333
653.422720	33.842661	59.650000
653.266908	32.848387	59.666667
652.469142	32.085475	59.683333
652.152489	31.675587	59.700000
651.675874	30.536723	59.716667
650.877931	30.038488	59.733333
650.561277	29.629825	59.750000
649.923996	28.813235	59.766667
649.447029	28.201436	59.783333
648.970061	27.590188	59.800000
648.653581	26.921863	59.816667
648.176787	26.050821	59.833333
647.539504	25.238387	59.850000
646.741382	25.005451	59.866667
646.424901	24.339503	59.883333
645.787442	23.789389	59.900000
645.791763	23.269232	59.916667
645.154477	22.460231	59.933333
644.517191	21.652208	59.950000
644.040219	21.046834	59.966667
643.402758	20.499672	59.983333
642.925612	20.154427	60.000000
642.609128	19.492862	60.016667
641.811177	19.004849	60.033333
641.494519	18.602925	60.050000
640.857056	18.058172	60.066667
640.540571	17.398622	60.083333
640.063596	16.797296	60.100000
639.425960	16.512083	60.116667
639.270134	15.538611	60.133333
638.472181	15.054313	60.150000
638.316182	14.339809	60.166667
637.678717	13.798930	60.183333
636.880763	13.316305	60.200000
636.403614	12.975635	60.216667
636.086953	12.577511	60.233333
635.288998	12.096194	60.250000
635.132825	11.640979	60.266667
634.334698	11.416842	60.283333
633.857548	11.077538	60.300000
633.380569	10.482478	60.316667
632.903418	10.143793	60.333333
632.586756	9.747639	60.350000
631.628139	9.582612	60.366667
631.632625	8.816047	60.383333
631.155474	8.478477	60.400000
630.518004	7.943723	60.416667
630.201341	7.549042	60.433333
629.403383	7.072948	60.450000
629.086719	6.678883	60.466667
628.609567	6.342801	60.483333
627.811437	6.122447	60.500000
627.655262	5.671382	60.516667
626.857302	5.197343	60.533333
626.540637	4.804633	60.550000
625.902995	4.527666	60.566667
625.265183	4.504778	60.583333
624.948518	4.112689	60.600000
624.150387	3.894108	60.616667
624.154699	3.387003	60.633333
623.998522	2.937892	60.650000
623.200391	2.720062	60.666667
622.883725	2.329203	60.683333
622.085763	1.858902	60.700000
621.447950	1.837048	60.716667
621.291772	1.389164	60.733333
620.654129	1.114831	60.750000
620.176973	0.782978	60.766667
619.699818	0.451374	60.783333
619.222493	0.372328	60.800000
618.745338	0.041099	60.816667
617.947036	0.077802	60.833333
617.309391	-0.195266	60.850000
617.313701	-0.699212	60.866667
616.836207	-0.525865	60.883333
616.680028	-0.971783	60.900000
616.042383	-1.244102	60.916667
615.565058	-1.322380	60.933333
615.408710	-1.516169	60.950000
614.450088	-1.672403	60.966667
614.454397	-2.175130	60.983333
613.816583	-2.195232	61.000000
613.499914	-2.582006	61.016667
613.022589	-2.659709	61.033333
612.063965	-2.814919	61.050000
611.747297	-3.201070	61.066667
611.269971	-3.278451	61.083333
610.632156	-3.297965	61.100000
610.315487	-3.683617	61.116667
609.677673	-3.702936	61.133333
609.361003	-4.088216	61.150000
608.723188	-4.107339	61.166667
608.406519	-4.492247	61.183333
607.929193	-4.568986	61.200000
607.452034	-4.895710	61.216667
606.814386	-5.164370	61.233333
606.497716	-5.548412	61.250000
605.859901	-5.566887	61.266667
605.703719	-6.008377	61.283333
604.905582	-6.218338	61.300000
604.588911	-6.601516	61.316667
603.790607	-6.561712	61.333333
603.313281	-6.637491	61.350000
602.996609	-7.020168	61.366667
602.358961	-7.286941	61.383333
601.721145	-7.304570	61.400000
601.243984	-7.628793	61.416667
600.606335	-7.894933	61.433333
600.289497	-8.027908	61.450000
599.330703	-7.929472	61.466667
598.853543	-8.252939	61.483333
598.215727	-8.269978	61.500000
597.417422	-8.229109	61.516667
597.261072	-8.419541	61.533333
596.302278	-8.320695	61.550000
595.824950	-8.395311	61.566667
595.187300	-8.660040	61.583333
594.228507	-8.560921	61.600000
593.590524	-8.329531	61.616667
592.792219	-8.288185	61.633333
592.154236	-8.056791	61.650000
591.997886	-8.246770	61.666667
591.520558	-8.320987	61.683333
591.203553	-8.205286	61.700000
590.084270	-8.048030	61.716667
589.446288	-7.816623	61.733333
589.129448	-7.948553	61.750000
588.651955	-7.774995	61.766667
588.174627	-7.849005	61.783333
587.857621	-7.733297	61.800000
587.059150	-7.444029	61.816667
587.063288	-7.691531	61.833333
585.783351	-7.228693	61.850000
585.306023	-7.302561	61.866667
584.828529	-7.128993	61.883333
584.511524	-7.013282	61.900000
584.034030	-6.839714	61.916667
583.717191	-6.971366	61.933333
583.239697	-6.797795	61.950000
582.601880	-6.813665	61.966667
582.124386	-6.640091	61.983333
581.807547	-6.771609	62.000000
581.009075	-6.482314	62.016667
580.531581	-6.308737	62.033333
579.893764	-6.324464	62.050000
579.416271	-6.150884	62.066667
579.099265	-6.035164	62.083333
578.942915	-6.224402	62.100000
578.625909	-6.108680	62.116667
577.827604	-6.066407	62.133333
577.029298	-6.024064	62.150000
575.909849	-5.619022	62.166667
574.950889	-5.271843	62.183333
574.954861	-5.271843	62.200000
575.119322	-5.329706	62.216667
574.962971	-5.518740	62.233333
574.806455	-5.460875	62.250000
573.205705	-5.129059	62.266667
571.444302	-4.492540	62.283333
571.448109	-4.245723	62.300000
571.773058	-4.361452	62.316667
572.098173	-4.724002	62.333333
572.262800	-5.028629	62.350000
571.464494	-4.985996	62.366667
570.666188	-4.943293	62.383333
568.583807	-4.191003	62.400000
568.266802	-4.075266	62.416667
568.431262	-4.133134	62.433333
568.756212	-4.248872	62.450000
568.118395	-4.263957	62.466667
567.159600	-4.163235	62.483333
566.200640	-3.816011	62.500000
566.365101	-3.873882	62.516667
565.085329	-3.657340	62.533333
566.694188	-4.236057	62.550000
564.772626	-4.034263	62.566667
564.937087	-4.092137	62.583333
563.496825	-3.817511	62.600000
562.698354	-3.528137	62.616667
561.257928	-3.007264	62.633333
562.224832	-3.354513	62.650000
561.907992	-3.484932	62.666667
564.158971	-4.541314	62.683333
560.953499	-3.875810	62.700000
559.673562	-3.412780	62.716667
557.109550	-2.240755	62.733333
557.594823	-2.168365	62.750000
559.203847	-2.993169	62.766667
559.047496	-3.181265	62.783333
559.693588	-3.658699	62.800000
559.537400	-4.092477	62.816667
555.689808	-2.949031	62.833333
556.175247	-3.122679	62.850000
553.450911	-2.138668	62.866667
555.701560	-2.703313	62.883333
555.224396	-3.021037	62.900000
554.265435	-2.673733	62.916667
554.911527	-3.150864	62.933333
553.471265	-2.875427	62.950000
552.672794	-2.585996	62.966667
552.355953	-2.715686	62.983333
551.076016	-2.252589	63.000000
552.524551	-3.018976	63.016667
550.121357	-2.395985	63.033333
549.964840	-2.338096	63.050000
550.610932	-2.814926	63.066667
547.244641	-1.599233	63.083333
549.334966	-2.351805	63.100000
548.536659	-2.307557	63.116667
549.022262	-2.726376	63.133333
549.668353	-3.203035	63.150000
546.783857	-2.650931	63.166667
545.824733	-2.058610	63.183333
544.705448	-1.898294	63.200000
542.783391	-0.958618	63.216667
545.836649	-2.058610	63.233333
543.754432	-1.550922	63.250000
547.449809	-3.127411	63.266667
544.565313	-2.574871	63.283333
542.483095	-2.066888	63.300000
542.166090	-1.951090	63.316667
539.602243	-1.024701	63.333333
540.569147	-1.372097	63.350000
542.338659	-2.253623	63.366667
539.774812	-1.327219	63.383333
541.865302	-2.324494	63.400000
538.659663	-1.410963	63.416667
539.947709	-2.118623	63.433333
538.186469	-1.726060	63.450000
538.190441	-1.726060	63.466667
537.713111	-1.796659	63.483333
537.396269	-1.925098	63.500000
535.474540	-1.474402	63.516667
535.799490	-1.590217	63.533333
533.556784	-1.023622	63.550000
536.931019	-2.239697	63.566667
535.009290	-1.788856	63.583333
534.692448	-1.917036	63.600000
534.696584	-2.160975	63.616667
531.811922	-1.362434	63.633333
531.334265	-0.944837	63.650000
531.017423	-1.072872	63.666667
530.860907	-1.014960	63.683333
533.753840	-2.301196	63.700000
530.548364	-1.630346	63.716667
530.873313	-1.746177	63.733333
529.272725	-1.654187	63.750000
527.671646	-0.831471	63.766667
528.638714	-1.422518	63.783333
527.358777	-0.959179	63.800000
528.646822	-1.666008	63.816667
528.490632	-2.094890	63.833333
526.247761	-1.284006	63.850000
526.573037	-1.886388	63.866667
524.330167	-1.075476	63.883333
524.494628	-1.133399	63.900000
524.017134	-0.959632	63.916667
523.058174	-0.612097	63.933333
525.309151	-1.666185	63.950000
524.511006	-1.862732	63.966667
523.873186	-1.874020	63.983333
521.951456	-1.421824	64.000000
519.387608	-0.494986	64.016667
520.033372	-0.483788	64.033333
520.518974	-0.900478	64.050000
520.683435	-0.958405	64.066667
522.613597	-2.139201	64.083333
519.407957	-1.223343	64.100000
520.214536	-1.755667	64.116667
517.330035	-1.198037	64.133333
515.407980	-0.260311	64.150000
516.856351	-0.781703	64.166667
516.699997	-0.966304	64.183333
517.024947	-1.082171	64.200000
517.510710	-1.740870	64.216667
515.268002	-1.172125	64.233333
514.951322	-1.540768	64.250000
512.708289	-0.487418	64.266667
512.872912	-0.787571	64.283333
512.555907	-0.671694	64.300000
512.880857	-0.787571	64.316667
513.366620	-1.445647	64.333333
512.407822	-1.340042	64.350000
511.930490	-1.408193	64.366667
510.811203	-1.244506	64.383333
509.531265	-0.780960	64.400000
509.214422	-0.906914	64.416667
507.934484	-0.443360	64.433333
508.098945	-0.501304	64.450000
509.226501	-1.148696	64.466667
508.267864	-1.284399	64.483333
507.790532	-1.352154	64.500000
507.634177	-1.535742	64.516667
505.230818	-0.666505	64.533333
504.913975	-0.792068	64.550000
503.794526	-0.386416	64.566667
503.958987	-0.444366	64.583333
505.086542	-1.091421	64.600000
504.609210	-1.158909	64.616667
504.773832	-1.458145	64.633333
503.173240	-1.360985	64.650000
502.053791	-0.955299	64.666667
500.774014	-0.732741	64.683333
499.975543	-0.442960	64.700000
500.460981	-0.616829	64.716667
499.662510	-0.327048	64.733333
499.987621	-0.683980	64.750000
500.152405	-1.223801	64.766667
499.514422	-0.991965	64.783333
499.197740	-1.357663	64.800000
497.276008	-0.902840	64.816667
495.514604	-0.265257	64.833333
496.160370	-0.256403	64.850000
496.806458	-0.728954	64.866667
496.329125	-0.795711	64.883333
496.654398	-1.392752	64.900000
494.411688	-0.821699	64.916667
494.415821	-1.062096	64.933333
493.778000	-1.070562	64.950000
491.855945	-0.134624	64.966667
493.304478	-0.896659	64.983333
492.345678	-0.789118	65.000000
491.226390	-0.623537	65.016667
491.230362	-0.623537	65.033333
490.753029	-0.689766	65.050000
491.238629	-1.103762	65.066667
489.637874	-0.764059	65.083333
488.518585	-0.598199	65.100000
489.325162	-1.127963	65.116667
487.563758	-0.490240	65.133333
487.888868	-0.846018	65.150000
486.769580	-0.679950	65.166667
486.613063	-0.621973	65.183333
487.419640	-1.151564	65.200000
485.176930	-0.579511	65.216667
486.143995	-1.166966	65.233333
485.024707	-1.000624	65.250000
483.423791	-0.420818	65.266667
483.748901	-0.776229	65.283333
482.468963	-0.312376	65.300000
482.794073	-0.667725	65.316667
482.798206	-0.907051	65.333333
481.357940	-0.624458	65.350000
482.164356	-0.914381	65.366667
480.242783	-0.696894	65.383333
479.444151	-0.167831	65.400000
480.732194	-0.870853	65.416667
477.847368	0.172906	65.433333
480.579810	-1.051945	65.450000
478.176770	-0.660082	65.466667
478.180743	-0.660082	65.483333
478.024546	-1.079806	65.500000
476.744768	-0.854636	65.516667
475.625319	-0.448689	65.533333
475.147985	-0.513404	65.550000
474.830819	-0.158726	65.566667
476.600488	-1.273986	65.583333
473.234356	-0.294668	65.600000
475.164193	-0.990612	65.616667
473.081971	-0.475177	65.633333
472.765125	-0.597627	65.650000
473.090235	-0.952007	65.666667
471.489479	-0.610342	65.683333
471.814588	-0.964601	65.700000
471.818720	-1.202803	65.716667
468.291939	0.073223	65.733333
470.703243	-0.796795	65.750000
467.979065	-0.048895	65.766667
469.587926	-0.628917	65.783333
469.271239	-0.988991	65.800000
467.991461	-0.762902	65.816667
467.835103	-0.942781	65.833333
466.394836	-0.658544	65.850000
465.275386	-0.252494	65.866667
466.884406	-1.070325	65.883333
463.678602	0.089835	65.900000
466.892350	-1.070325	65.916667
464.328820	-0.617512	65.933333
464.172304	-0.559502	65.950000
463.534639	-0.802532	65.966667
461.612746	-0.106389	65.983333
463.542584	-0.802532	66.000000
462.423452	-0.871270	66.016667
460.662207	-0.470430	66.033333
461.468623	-0.760504	66.050000
458.583797	0.283763	66.066667
460.513635	-0.412415	66.083333
460.357436	-0.828844	66.100000
459.238145	-0.659854	66.116667
459.402765	-0.954941	66.133333
456.999564	-0.321657	66.150000
457.324514	-0.437696	66.166667
456.847179	-0.500574	66.183333
455.727888	-0.331300	66.200000
456.534304	-0.621408	66.216667
455.575661	-0.746842	66.233333
454.616859	-0.635389	66.250000
455.102456	-1.046094	66.266667
452.056982	0.293003	66.283333
454.628934	-0.872018	66.300000
452.386221	-0.296220	66.316667
452.711330	-0.648773	66.333333
452.073505	-0.653101	66.350000
451.114545	-0.304931	66.366667
450.958186	-0.483275	66.383333
450.320520	-0.723718	66.400000
448.719446	0.092836	66.416667
450.649600	-1.075974	66.433333
448.085751	-0.147459	66.450000
450.497214	-1.254076	66.466667
446.649771	-0.333328	66.483333
447.295540	-0.329470	66.500000
447.139182	-0.507433	66.516667
446.180379	-0.395155	66.533333
446.184510	-0.631028	66.550000
446.670264	-1.276715	66.566667
444.106415	-0.348094	66.583333
444.912990	-0.873978	66.600000
441.546697	0.344861	66.616667
443.476535	-0.351619	66.633333
442.357243	-0.180955	66.650000
443.324148	-0.529201	66.666667
443.007459	-0.884182	66.683333
442.530280	-1.180875	66.700000
439.806100	-0.429423	66.716667
440.291538	-0.603560	66.733333
438.369645	0.092988	66.750000
439.978505	-0.487469	66.766667
438.698724	-0.258345	66.783333
438.863343	-0.551575	66.800000
439.349097	-1.195914	66.816667
436.785405	-0.502118	66.833333
436.949866	-0.560169	66.850000
435.188619	-0.156541	66.866667
435.032102	-0.098489	66.883333
436.320143	-0.797775	66.900000
434.398406	-0.335952	66.916667
435.044334	-0.568165	66.933333
433.925199	-0.631219	66.950000
432.966238	-0.282888	66.966667
432.970367	-0.517508	66.983333
431.208962	0.121110	67.000000
432.015379	-0.169171	67.016667
432.501132	-0.812398	67.033333
431.702817	-0.756543	67.050000
430.583524	-0.584501	67.066667
430.106344	-0.878881	67.083333
428.184450	-0.182138	67.100000
428.669889	-0.356324	67.116667
427.389951	0.108172	67.133333
429.159457	-0.764696	67.150000
427.879675	-0.534313	67.166667
428.204939	-1.118507	67.183333
425.962224	-0.539520	67.200000
425.484886	-0.599191	67.216667
424.204948	-0.134650	67.233333
424.850876	-0.366920	67.250000
423.410605	-0.078111	67.266667
425.340443	-0.774934	67.283333
423.258374	-0.487464	67.300000
423.422991	-0.779158	67.316667
422.143209	-0.548144	67.333333
421.184249	-0.199710	67.350000
421.348866	-0.491276	67.366667
421.673972	-0.840860	67.383333
420.394190	-0.609637	67.400000
419.435386	-0.494492	67.416667
418.636914	-0.204111	67.433333
418.480397	-0.146035	67.450000
418.324037	-0.321200	67.466667
417.846699	-0.380148	67.483333
417.529849	-0.497111	67.500000
417.213000	-0.614011	67.516667
415.772729	-0.324283	67.533333
416.097679	-0.440445	67.550000
414.817896	-0.208724	67.566667
414.661536	-0.383510	67.583333
415.147131	-0.790569	67.600000
413.225392	-0.326306	67.616667
413.871320	-0.558644	67.633333
412.270560	-0.210474	67.650000
412.756154	-0.617352	67.666667
411.797349	-0.501390	67.683333
411.159366	-0.269039	67.700000
411.484472	-0.617711	67.716667
410.204845	-0.617804	67.733333
409.566862	-0.385443	67.750000
409.891967	-0.733934	67.766667
407.167784	0.021383	67.783333
408.776490	-0.327295	67.800000
407.657195	-0.152894	67.816667
408.303279	-0.617447	67.833333
407.826095	-0.907354	67.850000
405.583379	-0.326014	67.866667
405.587351	-0.326014	67.883333
405.110012	-0.383657	67.900000
404.632518	-0.209366	67.916667
404.797134	-0.499333	67.933333
403.838484	-0.614297	67.950000
404.002945	-0.672397	67.966667
403.365272	-0.903310	67.983333
401.603867	-0.264191	68.000000
402.089461	-0.670057	68.016667
399.846589	0.143381	68.033333
400.973984	-0.263338	68.050000
400.978266	-0.726270	68.066667
399.858971	-0.550910	68.083333
400.665543	-1.072754	68.100000
398.262337	-0.432403	68.116667
397.624354	-0.199973	68.133333
398.751903	-0.837914	68.150000
395.545943	0.555424	68.166667
398.599359	-0.779806	68.183333
397.159086	-0.487952	68.200000
397.323857	-1.008128	68.216667
395.723249	-0.888831	68.233333
394.122333	-0.307701	68.250000
393.965816	-0.249588	68.266667
393.969943	-0.480397	68.283333
392.369027	0.100743	68.300000
394.459664	-1.116185	68.316667
391.574991	-0.300720	68.333333
392.702539	-0.938104	68.350000
390.620156	-0.182574	68.366667
390.302996	0.164215	68.383333
391.591188	-0.761781	68.400000
390.311558	-0.757644	68.416667
389.834064	-0.583283	68.433333
389.356878	-0.869487	68.450000
386.311408	0.465075	68.466667
388.722713	-0.406748	68.483333
386.801127	-0.169709	68.500000
387.928522	-0.576572	68.516667
388.093291	-1.094894	68.533333
386.492529	-0.743645	68.550000
386.336320	-1.145346	68.566667
383.291157	-0.270722	68.583333
382.653020	0.191598	68.600000
384.261881	-0.389682	68.616667
382.340141	0.078052	68.633333
385.553891	-1.084526	68.650000
383.311480	-0.959793	68.666667
382.031695	-0.724305	68.683333
381.714844	-0.837545	68.700000
379.311483	0.034459	68.716667
380.599366	-0.430610	68.733333
378.677625	0.037565	68.750000
379.163064	-0.136839	68.766667
380.130123	-0.715025	68.783333
379.331958	-0.882919	68.800000
378.694129	-0.879564	68.816667
377.895810	-0.818004	68.833333
375.331960	0.112223	68.850000
375.817399	-0.062194	68.866667
374.697949	0.344781	68.883333
376.306964	-0.465675	68.900000
376.150754	-0.865483	68.916667
374.549990	-0.512941	68.933333
375.035583	-0.916190	68.950000
372.953506	-0.617763	68.966667
371.834056	-0.210743	68.983333
372.159006	-0.327034	69.000000
370.397600	0.312569	69.016667
372.487928	-0.443326	69.033333
371.047807	-0.377200	69.050000
371.372910	-0.722001	69.066667
371.377035	-0.950449	69.083333
368.652849	-0.190283	69.100000
368.335996	-0.302295	69.116667
368.018991	-0.185993	69.133333
367.541649	-0.239789	69.150000
367.706263	-0.526133	69.166667
366.265836	-0.002755	69.183333
367.072558	-0.749722	69.200000
365.792772	-0.512487	69.216667
364.833963	-0.391493	69.233333
365.800869	-0.740434	69.250000
363.718791	-0.440088	69.266667
364.043741	-0.556406	69.283333
363.245421	-0.493368	69.300000
361.644504	0.088228	69.316667
361.648477	0.088228	69.333333
361.492113	-0.081300	69.350000
361.977704	-0.483413	69.366667
362.623784	-0.943635	69.383333
360.702195	-0.700641	69.400000
360.224852	-0.753535	69.416667
358.142621	-0.224704	69.433333
357.504486	0.235273	69.450000
358.471391	-0.113718	69.466667
357.512582	0.007960	69.483333
359.121596	-0.800964	69.500000
357.842113	-1.017043	69.516667
356.401685	-0.493515	69.533333
355.924343	-0.546016	69.550000
354.002600	-0.074908	69.566667
353.845932	0.210204	69.583333
354.652501	-0.307595	69.600000
353.372714	-0.069100	69.616667
354.660749	-0.761307	69.633333
354.022918	-0.755378	69.650000
352.743282	-0.743322	69.666667
350.982028	-0.329955	69.683333
350.022915	0.245674	69.700000
349.866550	0.077285	69.716667
350.512478	-0.155424	69.733333
350.195624	-0.265578	69.750000
351.483811	-1.183857	69.766667
349.241090	-0.595666	69.783333
348.603410	-0.815413	69.800000
347.162982	-0.291769	69.816667
346.204021	0.057327	69.833333
346.207993	0.057327	69.850000
346.533095	-0.285174	69.866667
346.376730	-0.453067	69.883333
347.022960	-1.137788	69.900000
343.817305	-0.199947	69.916667
345.105189	-0.665445	69.933333
343.183446	-0.193022	69.950000
343.508547	-0.535165	69.966667
342.549737	-0.411733	69.983333
342.393220	-0.353543	70.000000
342.397344	-0.579186	70.016667
341.920000	-0.630195	70.033333
340.319234	-0.273790	70.050000
340.483847	-0.557439	70.066667
339.204058	-0.317280	70.083333
339.849986	-0.550059	70.100000
339.372794	-0.826081	70.116667
337.932366	-0.302314	70.133333
337.455022	-0.352930	70.150000
336.496211	-0.228886	70.166667
336.339695	-0.170688	70.183333
337.627578	-0.636274	70.200000
335.224518	-0.213391	70.216667
336.351913	-0.620791	70.233333
335.393253	-0.721449	70.250000
333.631847	-0.081228	70.266667
333.635970	-0.306060	70.283333
332.355880	0.384387	70.300000
333.644065	-0.530832	70.316667
333.006232	-0.522728	70.333333
332.850017	-0.913766	70.350000
332.533161	-1.021885	70.366667
329.487994	-0.140402	70.383333
329.331327	0.142262	70.400000
329.656428	-0.198610	70.416667
328.536827	0.433299	70.433333
331.429901	-1.063308	70.450000
329.508306	-0.813418	70.466667
329.673068	-1.320015	70.483333
326.788389	-0.496275	70.500000
324.705855	0.484582	70.516667
325.993589	0.243022	70.533333
325.676884	-0.088779	70.550000
326.001984	-0.429232	70.566667
327.129679	-1.284622	70.583333
324.405489	-0.518785	70.600000
325.051567	-0.975440	70.616667
321.685421	0.023434	70.633333
321.849733	0.188924	70.650000
322.335172	0.014269	70.666667
322.339444	-0.433097	70.683333
322.183077	-0.598471	70.700000
322.347837	-1.103706	70.716667
319.302669	-0.220876	70.733333
320.751042	-0.744889	70.750000
317.705874	0.138026	70.766667
319.475225	-0.502444	70.783333
318.195435	-0.259926	70.800000
317.717940	-0.085250	70.816667
319.006123	-0.997444	70.833333
316.442422	-0.288901	70.850000
316.125416	-0.172445	70.866667
316.129538	-0.395478	70.883333
315.010237	-0.210842	70.900000
316.298419	-1.122455	70.916667
313.253251	-0.238834	70.933333
313.738690	-0.413532	70.950000
313.100706	-0.180601	70.966667
311.981256	0.227028	70.983333
313.750905	-0.858926	71.000000
311.989648	-0.440946	71.016667
311.351664	-0.208005	71.033333
312.158380	-0.944206	71.050000
309.273551	0.104064	71.066667
310.401095	-0.526012	71.083333
308.479348	-0.049500	71.100000
308.483321	-0.049500	71.116667
309.610864	-0.679466	71.133333
307.849756	-0.483218	71.150000
307.693388	-0.647082	71.166667
307.537020	-0.810887	71.183333
304.973169	0.121009	71.200000
306.261053	-0.344939	71.216667
304.499944	-0.148145	71.233333
304.664405	-0.206390	71.250000
304.829164	-0.708289	71.266667
303.709713	-0.300560	71.283333
304.837257	-0.930028	71.300000
302.113214	-0.383085	71.316667
302.277675	-0.441335	71.333333
301.318713	-0.091836	71.350000
300.199411	0.094376	71.366667
302.129251	-0.604633	71.383333
300.047015	-0.068852	71.400000
301.174707	-0.919406	71.416667
299.573938	-0.558172	71.433333
297.652190	-0.080351	71.450000
298.779585	-0.488137	71.466667
297.660283	-0.301523	71.483333
296.861811	-0.010243	71.500000
297.508035	-0.685433	71.516667
295.265162	0.130177	71.533333
296.874172	-0.673394	71.550000
295.915358	-0.544769	71.566667
294.314589	-0.183033	71.583333
294.639687	-0.520358	71.600000
293.520384	-0.333267	71.616667
293.363867	-0.275005	71.633333
292.886520	-0.320894	71.650000
291.767218	-0.133664	71.666667
292.252805	-0.529012	71.683333
290.812376	-0.004627	71.700000
291.458452	-0.458181	71.716667
290.339149	-0.270748	71.733333
289.540824	-0.199779	71.750000
289.705433	-0.478355	71.766667
287.944174	-0.057639	71.783333
288.429613	-0.232448	71.800000
289.075689	-0.685713	71.816667
287.314430	-0.264858	71.833333
287.800164	-0.879739	71.850000
285.878416	-0.400398	71.866667
284.598329	0.285722	71.883333
284.762937	0.007520	71.900000
284.606568	-0.154076	71.916667
285.413132	-0.665266	71.933333
284.293829	-0.477087	71.950000
283.816481	-0.521947	71.966667
282.857667	-0.391908	71.983333
282.219830	-0.378358	72.000000
280.779402	0.146156	72.016667
281.264988	-0.248182	72.033333
280.145684	-0.059656	72.050000
281.112738	-0.628724	72.066667
280.314412	-0.556634	72.083333
279.676575	-0.542759	72.100000
279.359716	-0.645389	72.116667
278.400901	-0.514814	72.133333
277.281597	-0.325884	72.150000
276.964592	-0.209311	72.166667
275.684652	0.256980	72.183333
277.133172	-0.486606	72.200000
276.174357	-0.355827	72.216667
276.499454	-0.691292	72.233333
274.577851	-0.429403	72.250000
274.421481	-0.589813	72.266667
273.623008	-0.298355	72.283333
273.306149	-0.400408	72.300000
272.347334	-0.269225	72.316667
272.030328	-0.152638	72.333333
271.232002	-0.079679	72.350000
272.359397	-0.487739	72.366667
271.079750	-0.458223	72.383333
270.120935	-0.326773	72.400000
270.446031	-0.661636	72.416667
269.487216	-0.530055	72.433333
268.528400	-0.398404	72.450000
268.853496	-0.733089	72.466667
266.610623	0.083118	72.483333
267.577675	-0.484704	72.500000
266.779348	-0.411154	72.516667
266.141510	-0.395840	72.533333
265.985140	-0.555372	72.550000
264.544711	-0.030636	72.566667
265.511763	-0.598234	72.583333
264.553093	-0.683766	72.600000
263.433642	-0.275620	72.616667
263.598249	-0.551515	72.633333
261.515864	0.206484	72.650000
262.803894	-0.477502	72.666667
261.684589	-0.286804	72.683333
261.528218	-0.445896	72.700000
262.013803	-0.838171	72.716667
260.413031	-0.472339	72.733333
259.775193	-0.456307	72.750000
258.816376	-0.323583	72.766667
257.215459	0.259555	72.783333
258.663832	-0.265269	72.800000
258.025994	-0.249103	72.816667
258.190600	-0.524450	72.833333
257.873885	-0.841703	72.850000
255.791500	-0.083580	72.866667
256.277230	-0.692164	72.883333
254.194845	0.065982	72.900000
253.877694	0.399394	72.916667
255.807825	-0.733934	72.933333
253.244118	-0.017470	72.950000
255.013615	-0.875602	72.966667
252.931375	-0.333957	72.983333
252.293536	-0.317141	73.000000
252.618631	-0.650203	73.016667
250.215413	0.008315	73.033333
250.700853	-0.166660	73.050000
250.383992	-0.266297	73.066667
248.943708	0.042416	73.083333
250.873548	-0.657506	73.100000
248.630964	-0.273193	73.116667
249.277037	-0.722554	73.133333
247.836753	-0.413570	73.150000
246.877936	-0.279505	73.166667
247.524008	-0.728692	73.183333
244.960156	0.204621	73.200000
245.606085	-0.028707	73.216667
246.252158	-0.477832	73.233333
245.132996	-0.500907	73.250000
245.458091	-0.833193	73.266667
243.215361	-0.232042	73.283333
242.898355	-0.115369	73.300000
243.384083	-0.721296	73.316667
241.301698	0.037099	73.333333
242.429238	-0.586634	73.350000
240.828464	-0.218543	73.366667
240.671947	-0.160203	73.383333
241.959976	-0.842169	73.400000
239.075290	-0.007208	73.416667
239.881851	-0.514035	73.433333
239.404645	-0.769063	73.450000
237.643238	-0.127277	73.466667
239.894200	-1.159039	73.483333
235.565113	0.201417	73.500000
237.655442	-0.557081	73.516667
235.573201	-0.013386	73.533333
235.898151	-0.130080	73.550000
236.704713	-0.636564	73.566667
235.104082	-0.482395	73.583333
234.787220	-0.580261	73.600000
234.951969	-1.067566	73.616667
231.425182	0.216178	73.633333
233.354879	-0.269607	73.650000
230.951660	0.391234	73.666667
233.202622	-0.640075	73.683333
232.725271	-0.679336	73.700000
230.803662	-0.407534	73.716667
230.807778	-0.621667	73.733333
229.848959	-0.485599	73.750000
228.248041	0.097973	73.766667
229.054602	-0.407821	73.783333
226.972216	0.350835	73.800000
229.544013	-0.582895	73.816667
227.622404	-0.310422	73.833333
227.145052	-0.349164	73.850000
226.988822	-0.718269	73.866667
225.227415	-0.076283	73.883333
225.552508	-0.406645	73.900000
224.914667	-0.386768	73.916667
223.795359	-0.191731	73.933333
225.083387	-0.872110	73.950000
222.359331	-0.306606	73.966667
223.647073	-0.560211	73.983333
222.206930	-0.461507	74.000000
221.087336	0.160335	74.016667
222.375363	-0.519875	74.033333
220.774731	-0.362538	74.050000
221.741780	-0.925849	74.066667
219.980515	-0.496792	74.083333
218.540086	0.028555	74.100000
218.383712	-0.126029	74.116667
217.906360	-0.163806	74.133333
217.749843	-0.105432	74.150000
218.235568	-0.706171	74.166667
217.116259	-0.510259	74.183333
217.762330	-0.956424	74.200000
215.198620	-0.234981	74.216667
214.560636	-0.001469	74.233333
214.404261	-0.155617	74.250000
214.087256	-0.038859	74.266667
214.412491	-0.580492	74.283333
213.935138	-0.617698	74.300000
212.815829	-0.421313	74.316667
213.301411	-0.808686	74.333333
210.577069	0.183825	74.350000
211.383629	-0.320249	74.366667
210.745787	-0.298810	74.383333
210.268434	-0.335692	74.400000
210.433037	-0.606055	74.416667
208.992750	-0.292490	74.433333
208.675744	-0.175715	74.450000
208.519369	-0.329179	74.466667
206.758104	0.101307	74.483333
208.046130	-0.577536	74.500000
206.605843	-0.263693	74.516667
206.609957	-0.475300	74.533333
206.293093	-0.570064	74.550000
205.013294	-0.314407	74.566667
204.375452	-0.292254	74.583333
203.576979	-0.000283	74.600000
204.223049	-0.445220	74.616667
204.066674	-0.598126	74.633333
202.626527	-0.494976	74.650000
201.828054	-0.202989	74.666667
201.832168	-0.414103	74.683333
200.391739	0.111482	74.700000
201.519276	-0.508360	74.716667
200.078988	-0.193755	74.733333
200.083101	-0.404685	74.750000
199.284770	-0.323547	74.766667
198.486438	-0.242342	74.783333
197.848595	-0.219474	74.800000
197.531589	-0.102667	74.816667
197.054235	-0.138137	74.833333
198.663239	-0.932809	74.850000
196.902114	-0.711418	74.866667
196.264271	-0.688232	74.883333
194.502863	-0.045748	74.900000
194.346488	-0.197714	74.916667
193.548155	-0.115981	74.933333
194.194084	-0.349619	74.950000
193.556241	-0.326233	74.966667
194.041962	-0.921798	74.983333
191.959858	-0.582521	75.000000
191.963830	-0.582521	75.016667
191.004868	-0.232040	75.033333
190.045905	0.118442	75.050000
190.210507	-0.149914	75.066667
189.572664	-0.126137	75.083333
189.737266	-0.394375	75.100000
189.420400	-0.487305	75.116667
189.103676	-0.789818	75.133333
188.144854	-0.648887	75.150000
186.383587	-0.215786	75.166667
185.745462	0.227406	75.183333
186.872998	-0.391047	75.200000
185.432569	0.134737	75.216667
186.881223	-0.809902	75.233333
185.601563	-0.761135	75.250000
185.284698	-0.853503	75.266667
183.362941	-0.361555	75.283333
181.762023	0.222700	75.300000
182.568440	-0.069428	75.316667
182.412063	-0.220086	75.333333
181.132263	0.038307	75.350000
183.864690	-1.163927	75.366667
181.301117	-0.646827	75.383333
181.305229	-0.855612	75.400000
178.580886	0.137706	75.416667
179.226955	-0.304732	75.433333
178.428482	-0.012576	75.450000
178.272105	-0.162797	75.466667
177.634260	-0.137659	75.483333
178.601307	-0.696795	75.500000
176.037593	0.029681	75.516667
177.807085	-0.821517	75.533333
174.761904	0.080415	75.550000
176.691746	-0.620821	75.566667
175.091106	-0.452970	75.583333
174.132283	-0.310505	75.600000
174.296884	-0.577050	75.616667
173.016944	-0.109533	75.633333
172.057981	0.241106	75.650000
174.630058	-1.109969	75.666667
171.103409	-0.032174	75.683333
172.391433	-0.707574	75.700000
171.111632	-0.447827	75.716667
170.955255	-0.597122	75.733333
170.317410	-0.571019	75.750000
168.395513	0.130327	75.766667
168.881091	-0.252620	75.783333
168.885203	-0.460172	75.800000
167.605401	-0.200082	75.816667
168.893425	-0.875101	75.833333
166.650828	-0.471489	75.850000
166.654661	-0.264182	75.866667
165.856466	-0.386481	75.883333
165.218482	-0.152676	75.900000
165.704199	-0.742341	75.916667
163.140345	0.192907	75.933333
164.267880	-0.423325	75.950000
163.469545	-0.338054	75.966667
162.992050	-0.162690	75.983333
163.798745	-0.868788	76.000000
162.037615	-0.639341	76.016667
160.597185	-0.113219	76.033333
161.564092	-0.463967	76.050000
159.160866	0.206219	76.066667
161.572175	-0.670664	76.083333
159.169087	-0.206974	76.100000
159.815154	-0.647328	76.116667
159.819403	-1.060177	76.133333
157.416039	-0.183232	76.150000
157.099171	-0.272629	76.166667
157.103143	-0.272629	76.183333
156.144319	-0.128106	76.200000
156.790386	-0.568169	76.216667
154.066181	0.219612	76.233333
156.637979	-0.715849	76.250000
154.074402	-0.192477	76.266667
153.757396	-0.075541	76.283333
154.564090	-0.779741	76.300000
153.444776	-0.576291	76.316667
152.004484	-0.255828	76.333333
152.169083	-0.520013	76.350000
149.765719	0.357069	76.366667
151.695698	-0.550250	76.383333
149.934290	0.092953	76.400000
151.222313	-0.580423	76.416667
150.745231	-1.021419	76.433333
148.983961	-0.583528	76.450000
148.667092	-0.671861	76.466667
147.387152	-0.204037	76.483333
146.588678	0.088352	76.500000
146.913766	-0.233823	76.516667
145.312847	0.350964	76.533333
147.242826	-0.555943	76.550000
145.802671	-0.439763	76.566667
145.164825	-0.410816	76.583333
145.810891	-0.849665	76.600000
143.407800	-0.382067	76.616667
143.893240	-0.557520	76.633333
142.613437	-0.294375	76.650000
141.333496	0.173508	76.666667
142.140051	-0.323589	76.683333
141.020736	-0.118791	76.700000
142.308622	-0.586687	76.716667
141.349933	-0.644804	76.733333
140.230755	-0.644178	76.750000
139.592908	-0.614524	76.766667
137.991989	-0.029613	76.783333
137.835472	0.028878	76.800000
137.679092	-0.116869	76.816667
136.880755	-0.028586	76.833333
137.366332	-0.408184	76.850000
137.209952	-0.553751	76.866667
137.214197	-0.961697	76.883333
136.576350	-0.931595	76.900000
133.852143	-0.140960	76.916667
133.053533	0.355334	76.933333
133.217995	0.296838	76.950000
133.543082	-0.023965	76.966667
134.991729	-0.957899	76.983333
133.230594	-0.721613	77.000000
132.913724	-0.808125	77.016667
131.634056	-0.746950	77.033333
129.712158	-0.044910	77.050000
129.876620	-0.103414	77.066667
129.078283	-0.014216	77.083333
129.724075	-0.044910	77.100000
130.530766	-0.744021	77.116667
129.090472	-0.420679	77.133333
128.613249	-0.651386	77.150000
127.333444	-0.386345	77.166667
126.535106	-0.296759	77.183333
126.539215	-0.499657	77.200000
124.938295	0.085442	77.216667
125.102757	0.026932	77.233333
125.106865	-0.175900	77.250000
124.790131	-0.464364	77.266667
125.436195	-0.901071	77.283333
124.477504	-0.955124	77.300000
121.913786	-0.221355	77.316667
121.596780	-0.104323	77.333333
121.119285	0.071223	77.350000
122.246816	-0.540794	77.366667
121.287989	-0.392042	77.383333
120.329162	-0.243221	77.400000
120.814737	-0.621002	77.416667
118.732486	-0.062415	77.433333
120.020507	-0.732678	77.450000
119.061815	-0.785582	77.466667
117.460896	-0.200362	77.483333
117.304650	-0.545616	77.500000
115.543106	0.299995	77.516667
116.670502	-0.109666	77.533333
116.353767	-0.396269	77.550000
116.518363	-0.656532	77.566667
116.201627	-0.942779	77.583333
114.119511	-0.584973	77.600000
113.160548	-0.233802	77.616667
113.004031	-0.175274	77.633333
111.563601	0.351483	77.650000
113.172600	-0.435232	77.666667
112.695239	-0.461013	77.683333
112.538857	-0.603792	77.700000
112.222256	-1.090304	77.716667
109.497912	-0.095237	77.733333
110.143976	-0.530435	77.750000
109.506261	-0.698245	77.766667
108.065831	-0.171423	77.783333
108.551270	-0.347031	77.800000
106.950486	0.037454	77.816667
108.398860	-0.489375	77.833333
108.082123	-0.773885	77.850000
106.802317	-0.506277	77.866667
107.448515	-1.141659	77.883333
104.724305	-0.346981	77.900000
103.604854	0.062809	77.916667
103.929804	-0.054274	77.933333
102.810352	0.355516	77.950000
105.221796	-0.723062	77.966667
103.781634	-0.596905	77.983333
103.946364	-1.055939	78.000000
102.666691	-0.987821	78.016667
99.781725	0.266104	78.033333
100.909255	-0.343805	78.050000
99.789803	0.066025	78.066667
99.954399	-0.192544	78.083333
101.242552	-1.060807	78.100000
99.160299	-0.499508	78.116667
98.843427	-0.582190	78.133333
97.884732	-0.630265	78.150000
96.123323	0.013814	78.166667
97.732187	-0.571712	78.183333
95.971046	-0.326762	78.200000
96.616975	-0.560979	78.216667
96.300236	-0.842769	78.233333
94.699450	-0.456564	78.250000
94.382577	-0.538745	78.266667
92.300190	0.222502	78.283333
93.909054	-0.363073	78.300000
93.431826	-0.585804	78.316667
92.312374	-0.175891	78.333333
93.600527	-1.042534	78.350000
91.197294	-0.363112	78.366667
90.398954	-0.269229	78.383333
90.563549	-0.526658	78.400000
88.802140	0.117535	78.416667
91.534562	-1.076849	78.433333
88.970840	-0.338571	78.450000
88.814456	-0.478690	78.466667
88.497583	-0.560182	78.483333
86.575818	-0.055943	78.500000
87.382370	-0.547279	78.516667
85.621094	-0.101468	78.533333
85.946044	-0.218605	78.550000
87.394552	-0.944106	78.566667
84.670474	-0.344995	78.583333
85.156047	-0.718906	78.600000
82.752814	-0.038458	78.616667
82.917143	0.101099	78.633333
83.402715	-0.272748	78.650000
82.123039	-0.200243	78.666667
82.287633	-0.456769	78.683333
82.933695	-0.888964	78.700000
80.049127	-0.230190	78.716667
81.497634	-0.955100	78.733333
79.094269	-0.076429	78.750000
79.098241	-0.076429	78.766667
79.262835	-0.332651	78.783333
77.822537	-0.003021	78.800000
79.431533	-0.786346	78.816667
77.670257	-0.339423	78.833333
77.353515	-0.617007	78.850000
77.197263	-0.952935	78.866667
75.114875	-0.191338	78.883333
75.760937	-0.622837	78.900000
73.518060	0.197357	78.916667
74.324478	-0.095570	78.933333
74.810050	-0.468423	78.950000
73.209263	-0.079595	78.966667
74.176302	-0.628095	78.983333
73.217735	-0.867140	79.000000
71.295837	-0.164061	79.016667
71.941898	-0.595155	79.033333
69.699021	0.225115	79.050000
69.863482	0.166524	79.066667
70.188565	-0.147325	79.083333
69.550712	-0.109565	79.100000
70.517883	-0.854165	79.116667
68.596248	-0.543833	79.133333
68.439863	-0.681547	79.150000
67.160053	-0.409022	79.166667
66.682689	-0.429415	79.183333
66.686661	-0.429415	79.200000
65.406851	-0.156752	79.216667
64.929356	0.019044	79.233333
66.217373	-0.645810	79.250000
63.974759	-0.217352	79.266667
65.102287	-0.823443	79.283333
63.020031	-0.257438	79.300000
62.542535	-0.081630	79.316667
62.546770	-0.473083	79.333333
62.069275	-0.297271	79.350000
62.073509	-0.688487	79.366667
61.435655	-0.649581	79.383333
59.834866	-0.258968	79.400000
59.517991	-0.337145	79.416667
58.719517	-0.044105	79.433333
59.686425	-0.395753	79.450000
58.727724	-0.434706	79.466667
58.892316	-0.688529	79.483333
57.131168	-0.434050	79.500000
56.974782	-0.570468	79.516667
54.892395	0.191497	79.533333
55.698813	-0.101566	79.550000
55.542427	-0.237918	79.566667
56.348975	-0.725895	79.583333
55.069295	-0.646613	79.600000
53.949973	-0.431026	79.616667
53.472739	-0.644444	79.633333
51.871689	0.136334	79.650000
51.715172	0.194952	79.666667
53.003188	-0.468590	79.683333
52.044485	-0.505901	79.700000
51.727740	-0.777446	79.716667
49.645482	-0.209665	79.733333
49.167987	-0.033799	79.750000
49.974405	-0.326909	79.766667
49.176192	-0.422209	79.783333
48.698956	-0.634510	79.800000
48.382080	-0.711257	79.816667
47.102269	-0.436183	79.833333
46.464284	-0.201676	79.850000
45.665940	-0.102410	79.866667
46.311869	-0.336920	79.883333
45.834504	-0.354848	79.900000
44.875800	-0.390515	79.916667
45.361370	-0.760037	79.933333
43.760709	-0.560808	79.950000
42.801746	-0.209016	79.966667
42.966208	-0.267648	79.983333
41.686396	0.007969	80.000000
42.332325	-0.226563	80.016667
42.336556	-0.613276	80.033333
40.735766	-0.220193	80.050000
41.381824	-0.647940	80.066667
39.139077	-0.020174	80.083333
39.785006	-0.254720	80.100000
39.307769	-0.464911	80.116667
38.188446	-0.247401	80.133333
38.834505	-0.674860	80.150000
36.752246	-0.105377	80.166667
36.595858	-0.239512	80.183333
36.278852	-0.122229	80.200000
35.640997	-0.080376	80.216667
36.608033	-0.624888	80.233333
35.167860	-0.482231	80.250000
34.690494	-0.498773	80.266667
34.694595	-0.691190	80.283333
32.130869	0.054799	80.300000
32.455819	-0.062494	80.316667
31.817835	0.172093	80.333333
32.624382	-0.313432	80.350000
33.591676	-1.241851	80.366667
31.348927	-0.612806	80.383333
31.353028	-0.804799	80.400000
28.789301	-0.058301	80.416667
28.311806	0.117656	80.433333
29.439203	-0.292909	80.450000
27.998901	0.043099	80.466667
29.287044	-0.809683	80.483333
28.649316	-0.958385	80.500000
26.245950	-0.078546	80.516667
27.694582	-0.989527	80.533333
24.167791	0.300937	80.550000
26.097505	-0.211451	80.566667
25.620395	-0.609805	80.583333
23.698496	0.094102	80.600000
24.826021	-0.507832	80.616667
23.867314	-0.538333	80.633333
23.389947	-0.553489	80.650000
23.394047	-0.744570	80.666667
20.830319	0.003023	80.683333
22.760291	-0.891901	80.700000
19.394117	0.149161	80.716667
20.200407	0.046728	80.733333
20.364997	-0.202829	80.750000
19.245800	-0.173774	80.766667
20.052346	-0.657823	80.783333
19.896085	-0.980412	80.800000
17.813952	-0.598721	80.816667
17.978413	-0.657391	80.833333
14.612111	0.574688	80.850000
17.023422	-0.305369	80.866667
16.385565	-0.261095	80.883333
15.426729	-0.099413	80.900000
16.714871	-0.949317	80.916667
14.472248	-0.508162	80.933333
14.636837	-0.756888	80.950000
13.036044	-0.360115	80.966667
11.595613	0.167974	80.983333
13.525456	-0.536145	81.000000
10.640749	0.330118	81.016667
12.410103	-0.315332	81.033333
11.772500	-0.650035	81.050000
10.332196	-0.311600	81.066667
11.620209	-0.970671	81.083333
8.895991	-0.162651	81.100000
8.097517	0.130758	81.116667
8.743574	-0.293468	81.133333
7.303270	0.045241	81.150000
9.393729	-0.907027	81.166667
7.311595	-0.522711	81.183333
6.192269	-0.301107	81.200000
6.356857	-0.548932	81.216667
4.113980	0.272688	81.233333
6.043823	-0.431558	81.250000
3.961688	-0.046705	81.266667
4.447255	-0.411725	81.283333
4.611969	-0.848150	81.300000
3.011176	-0.450015	81.316667
2.373317	-0.403961	81.333333
1.574969	-0.299149	81.350000
0.295028	0.170396	81.366667
