Thu Nov 07 15:41:12 2013

Number of Points = 4869
Depth (nm)	Load (µN)	Time (s)
-4.449338	0.607709	0.000000
-5.087066	0.652949	0.016667
-5.082965	0.652949	0.033333
-4.115927	0.300853	0.050000
-4.432804	0.418218	0.066667
-4.107724	0.300853	0.083333
-4.745580	0.535584	0.100000
-5.865030	1.135846	0.116667
-4.898120	0.973301	0.133333
-4.733529	0.914620	0.150000
-4.087597	0.869504	0.166667
-3.441412	0.445171	0.183333
-3.918778	0.621214	0.200000
-3.433208	0.445171	0.216667
-4.071064	0.679895	0.233333
-4.227578	0.928184	0.250000
-4.062988	0.869504	0.266667
-4.540481	1.235209	0.283333
-3.412954	0.824452	0.300000
-3.408980	1.014180	0.316667
-2.762921	0.779464	0.333333
-2.919182	0.648413	0.350000
-3.236186	0.955501	0.366667
-3.232084	0.955501	0.383333
-3.548961	1.072859	0.400000
-3.705476	1.321322	0.416667
-2.898928	1.027931	0.433333
-3.376421	1.393810	0.450000
-2.569874	1.100423	0.466667
-2.565772	1.100423	0.483333
-2.240692	0.983068	0.500000
-2.076101	0.924391	0.516667
-2.392978	1.041746	0.533333
-2.389004	1.231653	0.550000
-2.224413	1.172976	0.566667
-3.022757	1.466359	0.583333
-2.216337	1.362942	0.600000
-2.212235	1.362942	0.616667
-1.405815	1.259591	0.633333
-1.562075	1.128238	0.650000
-1.397484	1.069563	0.666667
-1.714488	1.376941	0.683333
-2.191854	1.552966	0.700000
-2.348369	1.801724	0.716667
-1.541822	1.508351	0.733333
-1.537847	1.698495	0.750000
-0.731299	1.405127	0.766667
-1.208666	1.581148	0.783333
-0.883586	1.463800	0.800000
-0.879484	1.463800	0.816667
-1.517467	1.888697	0.833333
-1.192387	1.771351	0.850000
-1.348902	2.020285	0.866667
-0.863460	2.034590	0.883333
-0.217401	1.799905	0.900000
-0.373789	1.858576	0.916667
-0.209198	1.799905	0.933333
-0.044607	1.741233	0.950000
-0.521973	1.917247	0.966667
-0.357510	2.048958	0.983333
-0.674387	2.166299	1.000000
-0.188945	2.180728	1.016667
0.136135	2.063388	1.033333
0.140237	2.063388	1.050000
0.304827	2.004719	1.066667
0.308801	2.195220	1.083333
-0.008076	2.312558	1.100000
0.156388	2.444448	1.116667
0.000000	2.503117	1.133333
0.325080	2.385780	1.150000
0.649777	2.840476	1.166667
1.295708	2.796609	1.183333
1.299554	3.178378	1.200000
1.463888	3.501718	1.216667
2.270052	3.781860	1.233333
2.594876	4.047136	1.250000
3.080060	4.445499	1.266667
4.046712	4.668437	1.283333
4.211046	4.993327	1.300000
5.017337	5.083848	1.316667
5.342031	5.542664	1.333333
5.827343	5.751092	1.350000
6.152036	6.210801	1.366667
6.316240	6.729686	1.383333
6.961782	7.265983	1.400000
7.767942	7.551558	1.416667
8.253123	7.954950	1.433333
9.219771	8.182982	1.450000
9.544722	8.259115	1.466667
10.029902	8.663772	1.483333
10.194234	8.992471	1.500000
10.839902	9.339396	1.516667
11.325082	9.745488	1.533333
11.810261	10.152118	1.550000
12.295439	10.559287	1.566667
13.262216	10.596560	1.583333
13.587035	10.868549	1.600000
14.232832	11.023549	1.616667
14.557651	11.296020	1.633333
14.721850	11.822397	1.650000
15.207027	12.232087	1.666667
15.692073	12.837782	1.683333
16.337607	13.385825	1.700000
17.143892	13.484402	1.716667
17.629199	13.700427	1.733333
18.114505	13.916694	1.750000
18.439191	14.388039	1.766667
18.924366	14.801323	1.783333
19.249051	15.273738	1.800000
19.734224	15.688097	1.816667
20.700865	15.927235	1.833333
21.186171	16.145552	1.850000
21.671476	16.364112	1.866667
22.156780	16.582914	1.883333
22.642085	16.801959	1.900000
22.806279	17.336003	1.916667
23.291450	17.753425	1.933333
23.936978	18.310826	1.950000
24.582771	18.472743	1.966667
25.067942	18.891786	1.983333
25.392623	19.369933	2.000000
26.198904	19.474257	2.016667
26.523585	19.953303	2.033333
27.008754	20.374323	2.050000
27.494057	20.596744	2.066667
27.979225	21.018664	2.083333
28.624883	21.382569	2.100000
29.110185	21.605956	2.116667
29.755975	21.771036	2.133333
30.241143	22.194761	2.150000
30.726444	22.418997	2.166667
31.051256	22.702021	2.183333
31.375934	23.185548	2.200000
31.860966	23.811569	2.216667
32.667110	24.120732	2.233333
32.991921	24.405192	2.250000
33.637575	24.773799	2.266667
33.962385	25.058860	2.283333
34.447550	25.486901	2.300000
35.414047	25.941407	2.316667
35.738992	26.025923	2.333333
36.063801	26.312186	2.350000
36.709454	26.683509	2.366667
37.194752	26.911852	2.383333
37.519426	27.401117	2.400000
38.165213	27.571548	2.416667
38.810865	27.944682	2.433333
39.296162	28.174237	2.450000
39.620971	28.462544	2.466667
39.945643	28.953963	2.483333
40.591293	29.328905	2.500000
40.915964	29.821397	2.516667
41.561614	30.197422	2.533333
42.207263	30.573991	2.550000
43.013537	30.688846	2.566667
43.177855	31.037932	2.583333
43.663014	31.474264	2.600000
44.308799	31.648470	2.616667
44.794094	31.881411	2.633333
45.118900	32.173083	2.650000
45.443569	32.669526	2.666667
46.089216	33.049537	2.683333
46.734999	33.225205	2.700000
47.220294	33.459599	2.716667
47.705450	33.899361	2.733333
48.190744	34.134360	2.750000
48.354922	34.691971	2.766667
49.000430	35.280356	2.783333
49.485585	35.722273	2.800000
50.131229	36.106265	2.816667
50.777011	36.284610	2.833333
51.262303	36.521663	2.850000
51.587107	36.817420	2.866667
52.232750	37.203047	2.883333
52.557553	37.499406	2.900000
53.203195	37.885938	2.916667
53.688487	38.124445	2.933333
54.173639	38.570336	2.950000
54.498441	38.867897	2.966667
54.983454	39.522183	2.983333
55.468467	40.177422	3.000000
56.114107	40.567207	3.016667
56.759886	40.749449	3.033333
57.084548	41.257016	3.050000
57.569698	41.706684	3.066667
58.215476	41.889900	3.083333
58.700626	42.340474	3.100000
59.346404	42.524301	3.116667
59.831693	42.766800	3.133333
59.995864	43.335487	3.150000
60.641501	43.729441	3.166667
61.287138	44.123940	3.183333
61.772426	44.367769	3.200000
62.257714	44.611842	3.216667
62.582513	44.914572	3.233333
63.067660	45.369116	3.250000
63.552806	45.824200	3.266667
64.037952	46.279824	3.283333
64.523098	46.735988	3.300000
65.168733	47.134291	3.316667
65.814367	47.533139	3.333333
66.139164	47.838272	3.350000
66.784797	48.238026	3.366667
67.270083	48.485368	3.383333
67.755227	48.944422	3.400000
68.401001	49.133981	3.416667
68.565166	49.710712	3.433333
68.889962	50.017648	3.450000
69.856430	50.515478	3.466667
70.020736	50.881517	3.483333
70.505878	51.343454	3.500000
71.151366	51.960211	3.516667
71.636650	52.210577	3.533333
72.121933	52.461187	3.550000
72.607074	52.925110	3.566667
73.092214	53.389573	3.583333
73.737843	53.796214	3.600000
74.222983	54.261760	3.616667
74.708265	54.514065	3.633333
75.193547	54.766615	3.650000
75.678686	55.233426	3.666667
76.003335	55.759131	3.683333
76.648818	56.383104	3.700000
76.973611	56.695451	3.716667
77.779582	57.262523	3.733333
77.943741	57.848899	3.750000
78.428733	58.534329	3.766667
78.913724	59.220713	3.783333
79.559349	59.634047	3.800000
80.204973	60.047927	3.816667
80.690108	60.520679	3.833333
81.175387	60.777822	3.850000
81.660521	61.251477	3.866667
82.145654	61.725673	3.883333
82.630788	62.200410	3.900000
83.115921	62.675687	3.916667
83.279930	63.485165	3.933333
83.925406	64.120660	3.950000
84.410391	64.815420	3.966667
85.216355	65.394533	3.983333
85.540996	65.931525	4.000000

86.026127	66.410758	4.016667
86.511111	67.108867	4.033333
86.996094	67.807932	4.050000
87.481076	68.507951	4.066667
88.287182	68.873313	4.083333
88.611822	69.414068	4.100000
89.257438	69.838803	4.116667
89.582077	70.380634	4.133333
90.067204	70.864729	4.150000
90.712820	71.291094	4.166667
90.876821	72.112920	4.183333
91.682777	72.702634	4.200000
92.168050	72.968723	4.216667
92.653027	73.676408	4.233333
93.138004	74.385048	4.250000
93.462639	74.931717	4.266667
94.108252	75.362424	4.283333
94.432886	75.910170	4.300000
94.917712	76.843687	4.316667
95.563324	77.276381	4.333333
95.887659	78.270520	4.350000
96.533121	78.927137	4.366667
97.178731	79.362002	4.383333
97.342575	80.417934	4.400000
98.148523	81.019206	4.416667
98.473154	81.572679	4.433333
98.797484	82.573946	4.450000
99.603431	83.178104	4.466667
100.088549	83.675516	4.483333
100.734005	84.339573	4.500000
100.898145	84.954653	4.516667
101.543450	85.845171	4.533333
102.028415	86.570300	4.550000
102.834509	86.954746	4.566667
102.998496	87.797934	4.583333
103.483459	88.525694	4.600000
103.968423	89.254409	4.616667
104.613874	89.925903	4.633333
104.938347	90.714707	4.650000
105.583645	91.614792	4.666667
105.908117	92.405737	4.683333
106.714054	93.023142	4.700000
107.038677	93.588612	4.716667
107.363147	94.382179	4.733333
108.169083	95.002235	4.750000
108.654193	95.511526	4.766667
109.139150	96.249571	4.783333
109.784748	96.701979	4.800000
109.788237	97.616125	4.816667
110.754659	98.182383	4.833333
111.079125	98.982153	4.850000
111.243101	99.841001	4.866667
112.209367	100.639791	4.883333
112.373496	101.270910	4.900000
113.018782	102.188347	4.916667
113.503733	102.934998	4.933333
113.988684	103.682604	4.950000
114.794457	104.545824	4.966667
115.119227	104.891534	4.983333
115.604175	105.641776	5.000000
115.928635	106.451073	5.016667
116.413427	107.434982	5.033333
117.219351	108.072149	5.050000
117.865097	108.303965	5.066667
118.189554	109.116845	5.083333
118.835300	109.349396	5.100000
118.838778	110.279867	5.116667
119.323566	111.270050	5.133333
119.968842	112.203651	5.150000
120.453784	112.963224	5.166667
121.259547	113.841458	5.183333
121.744802	114.135115	5.200000
122.229899	114.663144	5.216667
122.714840	115.426078	5.233333
122.878959	116.071468	5.250000
123.524387	116.778026	5.266667
124.009168	117.778663	5.283333
124.494263	118.310113	5.300000
125.139689	119.019557	5.316667
125.464295	119.610304	5.333333
126.109720	120.321432	5.350000
126.434166	121.149574	5.366667
127.239920	122.041037	5.383333
127.564366	122.871325	5.400000
128.049299	123.644551	5.416667
128.694721	124.360724	5.433333
129.179812	124.898487	5.450000
129.825391	125.378790	5.466667
130.310641	125.679962	5.483333
130.635242	126.277177	5.500000
131.120172	127.054967	5.516667
131.605102	127.833715	5.533333
131.929542	128.671408	5.550000
132.574960	129.394083	5.566667
133.220536	129.878742	5.583333
133.705624	130.421927	5.600000
134.030222	131.023631	5.616667
134.354499	132.104958	5.633333
134.999592	133.311761	5.650000
135.645166	133.800044	5.666667
136.290740	134.288875	5.683333
136.615497	134.653705	5.700000
136.939931	135.499998	5.716667
137.745831	136.173391	5.733333
138.231076	136.481478	5.750000
138.715998	137.272222	5.766667
139.200919	138.063923	5.783333
139.686001	138.614874	5.800000
140.010432	139.466188	5.816667
140.495352	140.260523	5.833333
140.980108	141.298233	5.850000
141.625514	142.036798	5.866667
141.950105	142.649275	5.883333
142.434859	143.690569	5.900000
143.240753	144.374111	5.916667
143.565342	144.988743	5.933333
144.371234	145.673982	5.950000
144.535335	146.347776	5.966667
145.180900	146.848409	5.983333
145.505325	147.709754	6.000000
146.311215	148.398379	6.016667
146.796291	148.958902	6.033333
147.281530	149.275001	6.050000
147.606117	149.894315	6.066667
148.091192	150.456287	6.083333
148.575937	151.509865	6.100000
149.060846	152.319078	6.116667
149.706244	153.071383	6.133333
149.870174	153.998244	6.150000
150.515405	154.999035	6.166667
151.160635	156.001327	6.183333
151.324398	157.178666	6.200000
152.130280	157.878647	6.216667
152.615184	158.695285	6.233333
153.421231	159.149338	6.250000
154.066956	159.413791	6.266667
154.231546	159.355955	6.283333
154.555960	160.232607	6.300000
155.201517	160.746147	6.316667
155.846908	161.508823	6.333333
156.010998	162.197109	6.350000
156.656554	162.712468	6.366667
157.301943	163.477557	6.383333
157.465865	164.417047	6.400000
157.950596	165.491576	6.416667
158.595983	166.259787	6.433333
158.920224	167.394806	6.450000
159.565609	168.165181	6.466667
160.210826	169.187300	6.483333
160.695889	169.766620	6.500000
161.341441	170.288701	6.516667
161.505357	171.236042	6.533333
162.150571	172.262665	6.550000
162.796290	172.535081	6.566667
163.441840	173.059712	6.583333
163.605923	173.758192	6.600000
164.090984	174.341678	6.616667
164.575705	175.430881	6.633333
165.060426	176.521576	6.650000
165.545315	177.360556	6.666667
166.030034	178.453940	6.683333
166.354433	179.352817	6.700000
166.678492	180.760652	6.716667
167.484185	181.743042	6.733333
167.808582	182.645495	6.750000
168.453955	183.433456	6.766667
168.778351	184.337820	6.783333
169.423552	185.383044	6.800000
170.229583	185.860855	6.816667
170.714636	186.454635	6.833333
170.878712	187.164368	6.850000
171.684743	187.643830	6.866667
172.009135	188.553230	6.883333
172.494359	188.892897	6.900000
172.818578	190.060436	6.916667
173.463773	191.114088	6.933333
173.948824	191.712392	6.950000
174.433529	192.826128	6.966667
175.078894	193.625916	6.983333
175.403282	194.542009	7.000000
175.888158	195.401390	7.016667
176.372860	196.520211	7.033333
176.536410	198.014667	7.050000
177.342087	199.021463	7.066667
177.987448	199.827989	7.083333
178.472319	200.693125	7.100000
179.439178	200.606953	7.116667
179.442758	201.386312	7.133333
180.088117	202.195749	7.150000
180.252010	203.179038	7.166667
180.736529	204.569310	7.183333
181.381886	205.382113	7.200000
182.027067	206.457093	7.216667
182.512109	207.068236	7.233333
183.157639	207.622318	7.250000
183.321528	208.611562	7.266667
183.966882	209.428956	7.283333
184.291082	210.624840	7.300000
184.775594	212.027307	7.316667
185.581610	212.527801	7.333333
185.905807	213.727862	7.350000
186.711822	214.229823	7.366667
187.036371	214.905059	7.383333
187.521409	215.523265	7.400000
188.166757	216.348388	7.416667
188.330640	217.347164	7.433333
189.136475	218.116657	7.450000
189.300356	219.117338	7.466667
189.945525	220.211263	7.483333
190.591048	220.776269	7.500000
191.076082	221.399367	7.516667
191.560937	222.288552	7.533333
191.885304	223.236230	7.550000
192.209491	224.450933	7.566667
192.854476	225.818500	7.583333
193.178841	226.769755	7.600000
193.984491	227.816384	7.616667
194.630009	228.387579	7.633333
194.954192	229.609150	7.650000
195.599710	230.181802	7.666667
195.763582	231.195349	7.683333
196.729897	231.922380	7.700000
197.215104	232.286265	7.716667
197.379155	233.033760	7.733333
198.024491	233.877962	7.750000
198.509337	234.780613	7.766667
198.833515	236.010858	7.783333
199.639337	236.800728	7.800000
199.963873	237.494338	7.816667
200.609206	238.343375	7.833333
200.933742	239.038248	7.850000
201.418404	240.216720	7.866667
202.063915	240.798131	7.883333
202.388087	242.036452	7.900000
203.033598	242.619321	7.916667
203.839415	243.416485	7.933333
204.164130	243.844151	7.950000
204.488663	244.543538	7.966667
204.652343	245.844378	7.983333
205.457611	247.461321	8.000000
206.103119	248.048568	8.016667
206.427467	249.023796	8.033333
207.072974	249.612322	8.050000
207.557809	250.531826	8.066667
208.042644	251.452292	8.083333
208.527661	252.100226	8.100000
208.691335	253.410894	8.116667
209.496961	254.493494	8.133333
209.821304	255.475429	8.150000
210.466440	256.618126	8.166667
211.272616	256.880554	8.183333
211.597142	257.590217	8.200000
212.082340	257.968010	8.216667
212.406496	259.229074	8.233333
213.051813	260.101333	8.250000
213.697314	260.698809	8.266667
213.700492	262.078166	8.283333
214.666784	262.838630	8.300000
214.830818	263.610327	8.316667
215.475947	264.763887	8.333333
216.121445	265.365012	8.350000
216.285293	266.415800	8.366667
217.091093	267.238234	8.383333
217.576102	267.898694	8.400000
218.061110	268.559700	8.416667
218.546119	269.221254	8.433333
219.030940	270.161486	8.450000
219.194598	271.495722	8.466667
220.000208	272.602232	8.483333
220.484840	273.824851	8.500000
221.291009	274.096605	8.516667
221.455038	274.877098	8.533333
221.939668	276.102727	8.550000
222.263996	277.107220	8.566667
222.908926	278.558476	8.583333
223.393553	279.788597	8.600000
224.039044	280.401407	8.616667
224.684534	281.014770	8.633333
225.169536	281.685945	8.650000
225.333560	282.472175	8.666667
226.139349	283.311396	8.683333
226.464050	283.759999	8.700000
226.787996	285.336228	8.716667
227.433105	286.517835	8.733333
228.078403	287.418422	8.750000
228.723890	288.037273	8.766667
229.048400	288.771126	8.783333
229.533398	289.448299	8.800000
229.857717	290.466480	8.816667
230.342144	291.995542	8.833333
230.826760	293.242800	8.850000
231.472243	293.866032	8.866667
232.117536	294.774132	8.883333
232.442233	295.228547	8.900000
233.087525	296.138106	8.916667
233.412031	296.878100	8.933333
233.896643	298.131686	8.950000
234.381444	299.101327	8.966667
235.187031	300.243272	8.983333
235.511726	300.700476	9.000000
235.996334	301.958875	9.016667
236.641813	302.588883	9.033333
236.644955	304.021153	9.050000
237.289857	305.513222	9.066667
237.935142	306.432947	9.083333
238.580234	307.641109	9.100000
239.225903	307.987674	9.116667
239.550596	308.448755	9.133333
240.035390	309.428777	9.150000
240.680866	310.064458	9.166667
240.684002	311.505951	9.183333
241.649872	312.895004	9.200000
242.135051	313.301399	9.216667
242.459355	314.343353	9.233333
243.104828	314.982692	9.250000
243.429324	315.736782	9.266667
243.914114	316.724046	9.283333
244.238221	318.059386	9.300000
244.722620	319.629510	9.316667
245.367701	320.853976	9.333333
246.012781	322.079952	9.350000
246.497567	323.073235	9.366667
247.303524	323.661910	9.383333
247.467528	324.479380	9.400000
248.112996	325.126219	9.416667
248.437291	326.179703	9.433333
248.922075	327.177097	9.450000
249.727833	328.061375	9.466667
249.892031	328.589440	9.483333
250.376420	330.175072	9.500000
250.861004	331.469561	9.516667
251.506076	332.708530	9.533333
252.312224	333.010679	9.550000
252.476027	334.128872	9.566667
252.960805	335.133993	9.583333
253.284897	336.491508	9.600000
253.769278	338.088294	9.616667
254.092973	340.039412	9.633333
254.898327	341.526886	9.650000
255.704275	342.128997	9.666667
256.189246	342.845618	9.683333
256.674416	343.266699	9.700000
257.159386	343.984237	9.716667
257.323182	345.112700	9.733333
258.128730	346.311019	9.750000
258.292524	347.441630	9.766667
259.098071	348.642674	9.783333
259.583238	349.066573	9.800000
259.907319	350.440574	9.816667
260.392087	351.461138	9.833333
261.037342	352.425739	9.850000
261.361620	353.505165	9.866667
261.845986	355.126098	9.883333
262.491038	356.393152	9.900000
262.815113	357.775531	9.916667
263.460164	359.045598	9.933333
264.426591	359.603535	9.950000
264.430291	360.203388	9.966667
264.914851	361.533381	9.983333
265.559899	362.807993	10.000000
266.205348	363.482479	10.016667
266.690511	363.913487	10.033333
267.014782	365.003736	10.050000
267.499338	366.339461	10.066667
267.823608	367.431866	10.083333
268.629341	368.354658	10.100000
268.792919	369.808001	10.116667
269.437757	371.394801	10.133333
269.761820	372.794574	10.150000
270.406859	374.082173	10.166667
271.052100	375.067880	10.183333
271.537056	375.807801	10.200000
271.861116	377.212675	10.216667
272.827331	378.087672	10.233333
272.830821	379.000214	10.250000
273.475651	380.599673	10.266667
274.281988	380.620323	10.283333
274.445761	381.782756	10.300000
275.091201	382.470627	10.316667
275.575949	383.521158	10.333333
276.060696	384.572657	10.350000
276.384954	385.681900	10.366667
276.709212	386.792102	10.383333
277.514728	388.039282	10.400000
277.838778	389.458272	10.416667
278.644498	390.401565	10.433333
278.968752	391.516099	10.450000
279.453494	392.574845	10.466667
279.938236	393.634558	10.483333
280.262489	394.751975	10.500000
280.907304	396.373166	10.516667
281.552531	397.379533	10.533333
281.716087	398.865741	10.550000
282.521800	399.817573	10.566667
283.006537	400.883810	10.583333
283.330578	402.317198	10.600000
283.815106	403.695379	10.616667
284.460121	405.018372	10.633333
285.105343	406.032509	10.650000
285.429797	406.850435	10.666667
286.075017	407.866277	10.683333
286.720654	408.261215	10.700000
287.045107	409.080784	10.716667
287.208654	410.580156	10.733333
287.853663	411.911030	10.750000
288.498672	413.243420	10.766667
288.983401	414.321752	10.783333
289.628826	415.032009	10.800000
289.952857	416.481320	10.816667
290.598281	417.193046	10.833333
290.601334	418.758018	10.850000
291.245918	420.724963	10.866667
291.730222	422.437522	10.883333
292.535711	423.724785	10.900000
293.180921	424.755696	10.916667
293.665643	425.844182	10.933333
294.311486	425.932521	10.950000
294.475653	426.505552	10.966667
294.960163	427.910886	10.983333
295.444883	429.002287	11.000000
295.929814	429.779040	11.016667
296.735297	431.074851	11.033333
296.899252	431.966207	11.050000
297.383969	433.061244	11.066667
298.350362	433.671061	11.083333
298.353827	434.620782	11.100000
298.677419	436.725759	11.116667
299.482897	438.029166	11.133333
299.646209	439.877937	11.150000
300.611960	441.446209	11.166667
300.936398	442.287692	11.183333
301.420896	443.710210	11.200000
302.066095	444.758891	11.216667
302.550805	445.865056	11.233333
303.035728	446.652939	11.250000
303.681353	447.065503	11.266667
304.326764	447.797816	11.283333
304.651413	448.323997	11.300000
304.975848	449.170217	11.316667
305.299638	450.977249	11.333333
305.623428	452.786424	11.350000
306.428679	454.428342	11.366667
307.234574	455.108966	11.383333
307.237600	456.715065	11.400000
307.882360	458.418526	11.416667
308.527550	459.480116	11.433333
308.851548	460.977793	11.450000
309.496520	462.364101	11.466667
309.981437	463.162757	11.483333
310.305432	464.664339	11.500000
311.111106	465.674866	11.516667
311.595805	466.799204	11.533333
312.241207	467.544381	11.550000
312.565850	468.079080	11.566667
313.050546	469.205611	11.583333
313.374755	470.389505	11.600000
313.698310	472.548208	11.616667
314.503762	473.890568	11.633333
315.149161	474.640344	11.650000
315.312878	475.885185	11.666667
316.118546	476.905516	11.683333
316.282044	478.478203	11.700000
317.087710	479.500736	11.716667
317.251206	481.076115	11.733333
317.735458	482.867114	11.750000
318.701609	483.836977	11.766667
319.025809	485.033156	11.783333
319.510496	486.173972	11.800000
319.995183	487.315757	11.816667
320.319381	488.514827	11.833333
320.964333	489.930553	11.850000
321.288310	491.460399	11.866667
322.093748	492.822857	11.883333
322.578652	493.641067	11.900000
323.063334	494.789157	11.916667
323.548015	495.938218	11.933333
324.032917	496.758443	11.950000
324.517376	498.239250	11.966667
325.162765	499.004674	11.983333
325.326247	500.600423	12.000000
325.971192	502.028897	12.016667
326.616579	502.796713	12.033333
326.940546	504.340113	12.050000
327.586154	504.777925	12.066667
327.749410	506.711443	12.083333
328.555283	507.425976	12.100000
328.879024	509.306503	12.116667
329.363475	510.800297	12.133333
330.008412	512.239392	12.150000
330.653795	513.013654	12.166667
331.138689	513.844674	12.183333
331.463096	514.732442	12.200000
331.787055	516.288182	12.216667
332.431988	517.733053	12.233333
332.916657	518.901280	12.250000
333.401101	520.405056	12.266667
334.206743	521.463135	12.283333
334.531147	522.355626	12.300000
335.176750	522.801168	12.316667
335.340216	524.421506	12.333333
335.824656	525.931035	12.350000
336.469357	527.722005	12.366667
336.793307	529.290985	12.383333
337.438232	530.749212	12.400000
338.083381	531.871994	12.416667
338.407328	533.445187	12.433333
339.052476	534.570163	12.450000
339.376195	536.483862	12.466667
340.182055	537.217139	12.483333
340.506452	538.119255	12.500000
340.669681	540.093369	12.516667
341.635800	541.111551	12.533333
341.959968	542.355023	12.550000
342.604884	543.826618	12.566667
343.089766	544.676668	12.583333
343.574420	545.866984	12.600000
343.898813	546.774372	12.616667
344.383010	548.646825	12.633333
344.867434	550.180837	12.650000
345.352085	551.375513	12.666667
345.996994	552.856219	12.683333
346.642360	553.655740	12.700000
346.806034	554.965375	12.716667
347.450712	556.791590	12.733333
348.096076	557.593508	12.750000
348.420006	559.192603	12.766667
349.065369	559.995998	12.783333
349.228810	561.653490	12.800000
349.873482	563.487700	12.816667
350.197178	565.436028	12.833333
351.163053	566.818769	12.850000
351.647926	567.682733	12.866667
352.293516	568.147104	12.883333
352.457413	569.123903	12.900000
353.263259	569.877446	12.916667
353.105719	571.656734	12.933333
353.749921	574.193413	12.950000
354.234096	576.098447	12.966667
354.878757	577.949730	12.983333
355.363625	578.820280	13.000000
356.008284	580.674842	13.016667
356.653406	581.837900	13.033333
357.298992	582.308011	13.050000
357.302396	583.348995	13.066667
357.947052	585.209026	13.083333
358.431451	586.779342	13.100000
359.076337	588.295301	13.116667
359.561200	589.172090	13.133333
360.045597	590.746347	13.150000
360.851902	590.815617	13.166667
361.015556	592.154565	13.183333
361.178742	594.192693	13.200000
361.983876	596.009619	13.216667
362.468503	597.240734	13.233333
362.792173	599.228779	13.250000
363.437050	600.756896	13.266667
363.921204	602.693095	13.283333
364.405827	603.929299	13.300000
365.050937	605.110683	13.316667
365.535559	606.348839	13.333333
366.020416	607.236257	13.350000
366.665524	608.420343	13.366667
367.150380	609.309054	13.383333
367.635472	609.846064	13.400000
367.799116	611.199668	13.416667
368.443749	613.092465	13.433333
368.928130	614.690046	13.450000
369.412747	615.935751	13.466667
369.897126	617.536057	13.483333
370.542229	618.728217	13.500000
371.026606	620.331253	13.516667
371.511220	621.581339	13.533333
371.835109	623.242812	13.550000
372.479970	624.794371	13.566667
372.643369	626.514552	13.583333
373.287991	628.424795	13.600000
373.932611	630.337220	13.616667
374.577707	631.539148	13.633333
375.223280	632.029135	13.650000
375.547878	632.630720	13.666667
376.192973	633.834631	13.683333
376.356845	634.849532	13.700000
376.680246	637.238275	13.716667
377.485586	638.747579	13.733333
378.130917	639.598261	13.750000
378.615521	640.863192	13.766667
378.939877	641.826438	13.783333
379.263512	643.865809	13.800000
379.908361	645.437161	13.816667
380.231753	647.839795	13.833333
380.876599	649.414784	13.850000
381.521444	650.991300	13.866667
382.166529	652.209144	13.883333
382.490881	653.178755	13.900000
382.975478	654.453894	13.916667
383.460075	655.730007	13.933333
384.104916	657.312629	13.950000
384.429023	658.646494	13.966667
385.073863	660.231856	13.983333
385.558699	661.150479	14.000000
385.882562	662.849363	14.016667
386.366668	664.856685	14.033333
387.011990	665.722347	14.050000
387.496337	667.369934	14.066667
387.980684	669.019034	14.083333
388.465273	670.306100	14.100000
389.110348	671.538642	14.116667
389.434449	672.883158	14.133333
389.597330	675.377088	14.150000
390.402401	677.287227	14.166667
390.886742	678.945405	14.183333
391.531813	680.184298	14.200000
392.177128	681.058658	14.216667
392.501224	682.410187	14.233333
392.985807	683.707234	14.250000
393.309656	685.426933	14.266667
393.954233	687.403862	14.283333
394.759787	688.593706	14.300000
395.245104	688.794334	14.316667
395.890662	689.306630	14.333333
396.054513	690.352638	14.350000
396.539337	691.288360	14.366667
396.863182	693.015344	14.383333
397.026045	695.535349	14.400000
397.830854	697.836722	14.416667
398.475669	699.458654	14.433333
399.120482	701.082114	14.450000
399.766038	701.599047	14.466667
399.929884	702.651740	14.483333
400.253226	705.128568	14.500000
400.737549	706.812551	14.516667
401.381862	709.183738	14.533333
402.187405	710.389855	14.550000
402.511735	711.391916	14.566667
403.156790	712.655091	14.583333
403.641606	713.603120	14.600000
403.805199	715.033947	14.616667
404.610739	716.244519	14.633333
404.613595	718.104732	14.650000
405.579121	720.007213	14.666667
406.063685	721.332048	14.683333
406.387761	722.713135	14.700000
407.032810	723.984649	14.716667
407.356635	725.741215	14.733333
407.840695	727.817923	14.750000
408.485491	729.467304	14.766667
408.969800	731.173452	14.783333
409.454107	732.881115	14.800000
410.099151	734.159978	14.816667
410.583708	735.495047	14.833333
411.068516	736.455580	14.850000
411.231595	738.654338	14.866667
412.197610	739.826970	14.883333
412.522182	740.468861	14.900000
413.006231	742.561579	14.916667
413.490784	743.902749	14.933333
413.975336	745.244897	14.950000
414.459635	746.965331	14.966667
415.104672	748.254511	14.983333
415.428482	750.032839	15.000000
416.234005	751.269078	15.016667
416.397580	752.726887	15.033333
416.881874	754.454003	15.050000
417.365660	756.940662	15.066667
417.689210	759.105923	15.083333
418.494475	760.728259	15.100000
419.139760	761.647299	15.116667
419.624304	763.002127	15.133333
420.109357	763.597266	15.150000
420.272671	765.444286	15.166667
421.077676	767.453376	15.183333
421.401730	768.867425	15.200000
422.046502	770.553748	15.216667
422.691784	771.478181	15.233333
423.176578	772.458236	15.250000
423.661373	773.438847	15.266667
423.824937	774.912328	15.283333
424.308962	777.041785	15.300000
424.953728	778.735450	15.316667
425.277520	780.540688	15.333333
425.761284	783.059542	15.350000
426.406047	784.758380	15.366667
426.729578	786.952990	15.383333
427.695313	788.545205	15.400000
428.019873	789.204521	15.416667
428.825377	790.468921	15.433333
428.989449	791.183957	15.450000
429.473721	792.945121	15.466667
430.118736	794.267208	15.483333
430.603264	795.645240	15.500000
430.766560	797.520257	15.516667
431.572060	798.790593	15.533333
431.574348	801.496726	15.550000
432.540074	803.101913	15.566667
432.864111	804.540952	15.583333
433.669349	806.203839	15.600000
433.833158	807.312122	15.616667
434.156413	809.918508	15.633333
435.122134	811.531101	15.650000
435.606914	812.532335	15.666667
435.930686	814.366917	15.683333
436.897187	814.815847	15.700000
436.900506	815.983540	15.716667
437.544989	818.101091	15.733333
437.869019	819.550576	15.750000
438.353013	821.726617	15.766667
439.158501	823.014015	15.783333
439.643278	824.021345	15.800000
439.967305	825.474966	15.816667
440.451819	826.874737	15.833333
440.775845	828.330297	15.850000
441.259833	830.515451	15.866667
441.583332	832.757572	15.883333
442.548513	835.175238	15.900000
443.193772	836.134051	15.916667
443.357308	837.650691	15.933333
444.002302	839.003991	15.950000
444.486546	840.806524	15.966667
444.971052	842.216794	15.983333
445.616045	843.573298	16.000000
445.779577	845.095010	16.016667
446.423775	847.637165	16.033333
446.908014	849.446993	16.050000
447.552473	851.598906	16.066667
448.197992	852.170812	16.083333
448.361520	853.698314	16.100000
449.006242	855.458626	16.116667
449.330255	856.933605	16.133333
449.814754	858.354871	16.150000
450.458942	860.912781	16.166667
450.942907	863.131067	16.183333
451.266650	865.008628	16.200000
452.071853	866.723758	16.216667
452.395594	868.604349	16.233333
453.361814	869.471191	16.250000
453.365382	870.267927	16.266667
454.009828	872.441073	16.283333
454.333833	873.927465	16.300000
454.818057	875.759513	16.316667
455.623253	877.483885	16.333333
455.947524	878.573845	16.350000
456.592232	880.355277	16.366667
457.076721	881.792443	16.383333
457.239967	883.740349	16.400000
457.884135	886.328062	16.416667
458.368621	887.769124	16.433333
459.013054	889.959828	16.450000
459.497538	891.403338	16.466667
459.981483	893.652233	16.483333
460.626722	894.641189	16.500000
460.950718	896.142404	16.516667
461.595685	897.535565	16.533333
462.080166	898.984224	16.550000
462.404160	900.488362	16.566667
462.888369	902.342650	16.583333
463.533064	904.143977	16.600000
463.857055	905.651515	16.616667
464.662234	907.401130	16.633333
464.986766	908.101411	16.650000
465.470700	910.367108	16.666667
465.954903	912.229629	16.683333
466.278619	914.148110	16.700000
466.762277	916.825626	16.716667
467.567450	918.584461	16.733333
468.051921	920.047060	16.750000
468.697151	921.049439	16.766667
468.699617	923.491092	16.783333
469.504513	925.662921	16.800000
469.989254	926.722474	16.816667
470.473449	928.598392	16.833333
471.118402	930.013230	16.850000
471.602869	931.483426	16.866667
471.927122	932.600306	16.883333
472.572073	934.017866	16.900000
472.574531	936.472123	16.916667
473.379144	939.066448	16.933333
473.863881	940.132655	16.950000
474.347518	942.839907	16.966667
474.831704	944.728918	16.983333
475.476375	946.565152	17.000000
476.121321	947.991813	17.016667
476.445293	949.528040	17.033333
477.090237	950.956678	17.050000
477.574694	952.440583	17.066667
478.220189	953.047230	17.083333
478.383949	954.229014	17.100000
479.028615	956.073256	17.116667
479.352583	957.614857	17.133333
479.997524	959.048940	17.150000
480.481701	960.951414	17.166667
480.965876	962.855409	17.183333
481.289288	965.228961	17.200000
481.773184	967.550466	17.216667
482.417287	970.234546	17.233333
482.901458	972.145829	17.250000
483.385349	974.473885	17.266667
484.190490	976.280173	17.283333
484.353964	977.888813	17.300000
485.159382	979.281782	17.316667
485.483898	980.005722	17.333333
486.128829	981.454348	17.350000
486.452787	983.012250	17.366667
487.097437	984.879792	17.383333
487.581879	986.385760	17.400000
488.066601	987.475290	17.416667
488.390276	989.454754	17.433333
489.034923	991.327518	17.450000
489.198390	992.945851	17.466667
489.842193	996.077217	17.483333
490.486836	997.955177	17.500000
490.810225	1000.362146	17.516667
491.615071	1002.609108	17.533333
492.099787	1003.706397	17.550000
492.584503	1004.804246	17.566667
493.069219	1005.902656	17.583333
493.393166	1007.476142	17.600000
494.037803	1009.363325	17.616667
494.683003	1010.409940	17.633333
494.685976	1012.094391	17.650000
495.330328	1014.406819	17.666667
495.653141	1017.673451	17.683333
496.458259	1019.514604	17.700000
496.942403	1021.465262	17.716667
497.426547	1023.417445	17.733333
497.910689	1025.371151	17.750000
498.234628	1026.956794	17.766667
498.557146	1030.662878	17.783333
499.522459	1032.884632	17.800000
500.007166	1033.996350	17.816667
500.812559	1035.425599	17.833333
501.137064	1036.167558	17.850000
501.621769	1037.280963	17.866667
501.945418	1039.299578	17.883333
502.429838	1040.840108	17.900000
502.913971	1042.807566	17.916667
503.558875	1044.296429	17.933333
503.882806	1045.894026	17.950000
504.527422	1047.811597	17.966667
504.850780	1050.265498	17.983333
505.656453	1051.277879	18.000000
505.980667	1052.452362	18.016667
506.143536	1054.964469	18.033333
506.787287	1058.173769	18.050000
507.271124	1060.583292	18.066667
507.915445	1062.941202	18.083333
508.721114	1063.959611	18.100000
509.206099	1064.656802	18.116667
509.530309	1065.837526	18.133333
510.014717	1067.394756	18.150000
510.338639	1069.006740	18.166667
511.143729	1070.888684	18.183333
511.467649	1072.502868	18.200000
512.112540	1074.010530	18.216667
512.758297	1074.226367	18.233333
512.760955	1076.381367	18.250000
513.405266	1078.754409	18.266667
513.568118	1081.290804	18.283333
514.051072	1085.018866	18.300000
514.855864	1087.345873	18.316667
515.500459	1089.295693	18.333333
516.145343	1090.813720	18.350000
516.308769	1092.493750	18.366667
516.953071	1094.881446	18.383333
517.437467	1096.456584	18.400000
517.920989	1099.336134	18.416667
518.405092	1101.348800	18.433333
518.889194	1103.362992	18.450000
519.533781	1105.325097	18.466667
520.339728	1105.928098	18.483333
520.664217	1106.692188	18.500000
521.148901	1107.838792	18.516667
521.472805	1109.475659	18.533333
521.796125	1111.986365	18.550000
522.440414	1114.392089	18.566667
522.764024	1116.469965	18.583333
523.408310	1118.879720	18.600000
523.892403	1120.907383	18.616667
524.536981	1122.883036	18.633333
525.181851	1124.421846	18.650000
525.345264	1126.122225	18.666667
525.829059	1128.594321	18.683333
526.473632	1130.575813	18.700000
526.957425	1133.051932	18.716667
527.763366	1133.663829	18.733333
528.087850	1134.436458	18.750000
528.572230	1136.035945	18.766667
528.735342	1138.183735	18.783333
529.218835	1141.107615	18.800000
529.863107	1143.539802	18.816667
530.186701	1145.639563	18.833333
530.830674	1148.517653	18.850000
531.796802	1149.523081	18.866667
532.121282	1150.300534	18.883333
532.766734	1150.971407	18.900000
532.609164	1152.794620	18.916667
533.252835	1156.123470	18.933333
534.057881	1158.072512	18.950000
534.541954	1160.129870	18.966667
535.026621	1161.300972	18.983333
535.671773	1162.419270	19.000000
535.995655	1164.089090	19.016667
536.479427	1166.595644	19.033333
536.803309	1168.267895	19.050000
537.286780	1171.223339	19.066667
538.092116	1172.738293	19.083333
538.415397	1175.305841	19.100000
538.899761	1176.929903	19.116667
539.383525	1179.447786	19.133333
539.706802	1182.021141	19.150000
540.351050	1184.490116	19.166667
540.834510	1187.462147	19.183333
541.960811	1188.880299	19.200000
542.285884	1188.773792	19.216667
542.610356	1189.563141	19.233333
543.255500	1190.694390	19.250000
543.257799	1193.384481	19.266667
544.063126	1194.912920	19.283333
544.065423	1197.606605	19.300000
544.869544	1200.935480	19.316667
545.674868	1202.468399	19.333333
545.838249	1204.215085	19.350000
546.643572	1205.750007	19.366667
546.807254	1207.048098	19.383333
547.129911	1210.547762	19.400000
548.256202	1211.980108	19.416667
548.419580	1213.732379	19.433333
549.224899	1215.273050	19.450000
549.388578	1216.575340	19.466667
550.354078	1218.516817	19.483333
550.678848	1218.862803	19.500000
550.841616	1221.524353	19.516667
551.325658	1223.628892	19.533333
551.648605	1226.694618	19.550000
551.971247	1230.217072	19.566667
552.935827	1233.531111	19.583333
553.098892	1235.750289	19.600000
554.224564	1238.107625	19.616667
554.709817	1238.403494	19.633333
555.033975	1239.662769	19.650000
555.518618	1240.869566	19.666667
555.681679	1243.094233	19.683333
556.486069	1246.020446	19.700000
557.131196	1247.177027	19.716667
557.455045	1248.896681	19.733333
558.099559	1250.968138	19.750000
558.423406	1252.689994	19.766667
558.907433	1254.817198	19.783333
559.551943	1256.892970	19.800000
559.875482	1259.076195	19.816667
560.359198	1261.666297	19.833333
561.003705	1263.746990	19.850000
561.487726	1265.882155	19.866667
561.972054	1267.559639	19.883333
562.295587	1269.750471	19.900000
563.100268	1272.243936	19.916667
563.745695	1272.952172	19.933333
563.909049	1274.739636	19.950000
564.553550	1276.829905	19.966667
564.877696	1278.105959	19.983333
565.522195	1280.198703	20.000000
566.006517	1281.884585	20.016667
566.651015	1283.980116	20.033333
566.974850	1285.721062	20.050000
567.459169	1287.410151	20.066667
567.782074	1290.540094	20.083333
568.426567	1292.641777	20.100000
568.910574	1294.797808	20.116667
569.555065	1296.902581	20.133333
569.878895	1298.650854	20.150000
570.201481	1302.255861	20.166667
571.006454	1304.313091	20.183333
571.490767	1306.012757	20.200000
572.135564	1307.660668	20.216667
572.619876	1309.362319	20.233333
573.104498	1310.599658	20.250000
573.749293	1312.250321	20.266667
573.752147	1314.112856	20.283333
574.396004	1317.163749	20.300000
575.040797	1318.818126	20.316667
575.203821	1321.098257	20.333333
575.848300	1323.221850	20.350000
576.492464	1325.814341	20.366667
576.816283	1327.579006	20.383333
577.299646	1330.695837	20.400000
577.944120	1332.826209	20.416667
578.428108	1335.010760	20.433333
579.233694	1336.153835	20.450000
579.558137	1336.986369	20.466667
580.202923	1338.652191	20.483333
580.527051	1339.954822	20.500000
581.011350	1341.674993	20.516667
581.495648	1343.396153	20.533333
581.818831	1346.111198	20.550000
582.462982	1348.723277	20.566667
582.786793	1350.500935	20.583333
583.270140	1353.640456	20.600000
584.075089	1355.734681	20.616667
584.399213	1357.044503	20.633333
585.043041	1360.137922	20.650000
585.527649	1361.397072	20.666667
585.850821	1364.127082	20.683333
586.656082	1365.755811	20.700000
586.819400	1367.595512	20.716667
587.463222	1370.699232	20.733333
588.107995	1372.384188	20.750000
588.592281	1374.122610	20.766667
588.916082	1375.914474	20.783333
589.560853	1377.602424	20.800000
589.884334	1379.871082	20.816667
590.528785	1382.036402	20.833333
590.852583	1383.832678	20.850000
591.336228	1386.528921	20.866667
591.819552	1389.703509	20.883333
592.463679	1392.352119	20.900000
593.269248	1393.520125	20.916667
593.433195	1394.421326	20.933333
593.916515	1397.603632	20.950000
594.400792	1399.356118	20.966667
594.723623	1402.595455	20.983333
595.528548	1404.724180	21.000000
595.852658	1406.054493	21.016667
596.818067	1408.133409	21.033333
597.142497	1408.986345	21.050000
597.466285	1410.797578	21.066667
597.789430	1413.568550	21.083333
598.433222	1416.716966	21.100000
599.077655	1418.907936	21.116667
599.723053	1419.659322	21.133333
600.046837	1421.476441	21.150000
600.531427	1422.761543	21.166667
600.533596	1425.646888	21.183333
601.498350	1428.702450	21.200000
601.821485	1431.488042	21.216667
602.465265	1434.653642	21.233333
603.110337	1435.891940	21.250000
603.755085	1437.613488	21.266667
604.239994	1438.422455	21.283333
604.724580	1439.714660	21.300000
604.566578	1442.182613	21.316667
605.531321	1445.254240	21.333333
605.854772	1447.569324	21.350000
606.498542	1450.750428	21.366667
606.983124	1452.047656	21.383333
607.627541	1454.263080	21.400000
607.951312	1456.099071	21.416667
608.274758	1458.421483	21.433333
608.597551	1461.717077	21.450000
609.562282	1464.807326	21.466667
609.886050	1466.648936	21.483333
610.691271	1468.335346	21.500000
611.015690	1469.204963	21.516667
611.338803	1472.023495	21.533333
612.304507	1473.660893	21.550000
612.307302	1475.611495	21.566667
613.112520	1477.302944	21.583333
613.597095	1478.611212	21.600000
614.081342	1480.408458	21.616667
614.565916	1481.718043	21.633333
614.728865	1484.109908	21.650000
615.372284	1487.815266	21.666667
616.016684	1490.055150	21.683333
616.501256	1491.368651	21.700000
617.145983	1493.120869	21.716667
617.308927	1495.520327	21.733333
617.792182	1498.798998	21.750000
618.275435	1502.080648	21.766667
619.080643	1503.786661	21.783333
619.564881	1505.597497	21.800000
620.049118	1507.409326	21.816667
620.533025	1509.714419	21.833333
621.178406	1510.491629	21.850000
621.502487	1511.865433	21.866667
622.146546	1514.614709	21.883333
622.149327	1516.587067	21.900000
622.792722	1520.327274	21.916667
623.275961	1523.629074	21.933333
623.920346	1525.893101	21.950000
624.564398	1528.653430	21.966667
625.209775	1529.435907	21.983333
625.533519	1531.312402	22.000000
625.856931	1533.685287	22.016667
626.180009	1536.555458	22.033333
626.984207	1539.768730	22.050000
627.468433	1541.598855	22.066667
628.112809	1543.874975	22.083333
628.758183	1544.661700	22.100000
629.082588	1545.552150	22.116667
629.727296	1547.333809	22.133333
630.051700	1548.225017	22.150000
630.214286	1551.158680	22.166667
631.018809	1553.887723	22.183333
631.342211	1556.275622	22.200000
631.664943	1559.662568	22.216667
632.308977	1562.449939	22.233333
632.631370	1566.342035	22.250000
633.435215	1570.083100	22.266667
634.240734	1571.325702	22.283333
634.403979	1573.275896	22.300000
635.209161	1575.020635	22.316667
635.533225	1576.420159	22.333333
636.017437	1578.269860	22.350000
636.501313	1580.622069	22.366667
636.985187	1582.975817	22.383333
637.629545	1585.279542	22.400000
638.114090	1586.631592	22.416667
638.598636	1587.984211	22.433333
638.922359	1589.891667	22.450000
639.084586	1593.360887	22.466667
639.888412	1597.130608	22.483333
640.533101	1598.939694	22.500000
641.017643	1600.297171	22.516667
641.501509	1602.663870	22.533333
641.985712	1604.527450	22.550000
642.469575	1606.896925	22.566667
642.953777	1608.762737	22.583333
643.598123	1611.083537	22.600000
643.922177	1612.497343	22.616667
644.245214	1615.429491	22.633333
645.049364	1618.715966	22.650000
645.373077	1620.639382	22.666667
646.017078	1623.474943	22.683333
646.501613	1624.842166	22.700000
646.824984	1627.276282	22.716667
647.469322	1629.609172	22.733333
647.953175	1631.994984	22.750000
648.276883	1633.925284	22.766667
649.242188	1636.159831	22.783333
649.566235	1637.583468	22.800000
649.728775	1640.586390	22.816667
650.694417	1642.315840	22.833333
651.018463	1643.741891	22.850000
651.502652	1645.627058	22.866667
651.986839	1647.513220	22.883333
652.149374	1650.523821	22.900000
652.953502	1653.842379	22.916667
653.276860	1656.295190	22.933333
654.081327	1659.107327	22.950000
654.244199	1661.614745	22.966667
655.048663	1664.430972	22.983333
655.693328	1666.275563	23.000000
655.856540	1668.274792	23.016667
656.662033	1669.557235	23.033333
656.986071	1670.993861	23.050000
657.309078	1673.971151	23.066667
658.114225	1675.769578	23.083333
658.599090	1676.643591	23.100000
658.600781	1680.241845	23.116667
659.565720	1683.021501	23.133333
660.049895	1684.927006	23.150000
660.534414	1686.318441	23.166667
660.857758	1688.792126	23.183333
661.341240	1691.731890	23.200000
661.663890	1695.241041	23.216667
662.307507	1698.650990	23.233333
662.951468	1701.547022	23.250000
663.595774	1703.928046	23.266667
664.079942	1705.844199	23.283333
664.564455	1707.243686	23.300000
664.888138	1709.212623	23.316667
665.854103	1710.460342	23.333333
666.017647	1711.963778	23.350000
666.501464	1714.402701	23.366667
666.985628	1716.324346	23.383333
667.470139	1717.727986	23.400000
667.793470	1720.221613	23.416667
668.597556	1723.603107	23.433333
668.760400	1726.151370	23.450000
669.403998	1729.588994	23.466667
670.048641	1731.467379	23.483333
670.532799	1733.397709	23.500000
671.177441	1735.278113	23.516667
671.340280	1737.833693	23.533333
671.984221	1740.759850	23.550000
672.468026	1743.216980	23.566667
672.952180	1745.153266	23.583333
673.596467	1747.562307	23.600000
674.080970	1748.977963	23.616667
674.726307	1749.820329	23.633333
675.049975	1751.810986	23.650000
675.373642	1753.802623	23.666667
675.695905	1757.890494	23.683333
676.339484	1761.356214	23.700000
676.983764	1763.775515	23.716667
677.628395	1765.671447	23.733333
677.952410	1767.144849	23.750000
678.275368	1770.194877	23.766667
678.919644	1772.619782	23.783333
679.081411	1776.776924	23.800000
679.885816	1779.681661	23.816667
680.369252	1782.690102	23.833333
681.174360	1784.544810	23.850000
681.980175	1785.345773	23.866667
682.144407	1785.822423	23.883333
682.468770	1786.775912	23.900000
682.791718	1789.840668	23.916667
683.114664	1792.907606	23.933333
683.918707	1796.353352	23.950000
684.562973	1798.794757	23.966667
685.207592	1800.708491	23.983333
685.692436	1801.615096	24.000000
685.855602	1803.682260	24.016667
686.499510	1806.658261	24.033333
686.822803	1809.207448	24.050000
687.306224	1812.238123	24.066667
687.950127	1815.220422	24.083333
688.112222	1818.888016	24.100000
689.077089	1821.773991	24.116667
689.722057	1823.167284	24.133333
690.045700	1825.194391	24.150000
690.690667	1826.589026	24.166667
690.692985	1829.251550	24.183333
691.819045	1831.029016	24.200000
692.143043	1832.526975	24.216667
692.627524	1833.974988	24.233333
692.790323	1836.591587	24.250000
693.273730	1839.642622	24.266667
693.917262	1843.179722	24.283333
694.561866	1845.115779	24.300000
694.724660	1847.739067	24.316667
695.368545	1850.747778	24.333333
695.691462	1853.859567	24.350000
696.817155	1856.185534	24.366667
696.981022	1857.207109	24.383333
697.464778	1859.736922	24.400000
698.109377	1861.681265	24.416667
698.593491	1863.677003	24.433333
699.077605	1865.673740	24.450000
699.722921	1866.546568	24.466667
699.886067	1868.645539	24.483333
700.691146	1870.544080	24.500000
700.854290	1872.645015	24.516667
701.337318	1876.261066	24.533333
701.981911	1878.213715	24.550000
702.143970	1881.935107	24.566667
702.626632	1886.098331	24.583333
703.591827	1888.494943	24.600000
703.915087	1891.094218	24.616667
704.559675	1893.054124	24.633333
704.883658	1894.574968	24.650000
705.688004	1897.568099	24.666667
706.172469	1899.040398	24.683333
706.817417	1900.463046	24.700000
707.302607	1900.853692	24.716667
707.305257	1903.019536	24.733333
708.109962	1905.477170	24.750000
708.433941	1907.002707	24.766667
708.756103	1911.240797	24.783333
709.722015	1912.567680	24.800000
709.885146	1914.688942	24.816667
710.207667	1918.390936	24.833333
710.690670	1922.045762	24.850000
711.172941	1926.792177	24.866667
712.138119	1929.214090	24.883333
712.300879	1931.888070	24.900000
712.944724	1934.958611	24.916667
713.749781	1936.890052	24.933333
714.074484	1937.335524	24.950000
714.558573	1939.368383	24.966667
714.881447	1942.544659	24.983333
715.525652	1945.076479	25.000000
716.331438	1945.919543	25.016667
716.655408	1947.459796	25.033333
716.979010	1949.547679	25.050000
717.462729	1952.133913	25.066667
717.785229	1955.867214	25.083333
718.429061	1958.955316	25.100000
718.912776	1961.547099	25.116667
719.556974	1964.090475	25.133333
720.041054	1966.136294	25.150000
720.203431	1969.381661	25.166667
721.328707	1972.329674	25.183333
721.492556	1973.379412	25.200000
722.137117	1975.379815	25.216667
722.460710	1977.481031	25.233333
722.944049	1980.634697	25.250000
723.749091	1982.588745	25.266667
723.912937	1983.640964	25.283333
724.556756	1986.749237	25.300000
725.040830	1988.806046	25.316667
725.202826	1992.619664	25.333333
726.167977	1995.082126	25.350000
726.331452	1996.689898	25.366667
726.975635	1999.254523	25.383333
727.620187	2001.267516	25.400000
727.944144	2002.827719	25.416667
728.427841	2005.445894	25.433333
729.072392	2007.461917	25.450000
729.234749	2010.736644	25.466667
730.200264	2012.655675	25.483333
730.363363	2014.824454	25.500000
731.168394	2016.795280	25.516667
731.331491	2018.966026	25.533333
731.653954	2022.754731	25.550000
732.618721	2025.791585	25.566667
732.781815	2027.966480	25.583333
733.425239	2031.663116	25.600000
734.230265	2033.642051	25.616667
734.554213	2035.213824	25.633333
735.198754	2037.244202	25.650000
735.361845	2039.424503	25.666667
736.005637	2042.572713	25.683333
736.329209	2044.705840	25.700000
736.972625	2048.416381	25.716667
737.777645	2050.403454	25.733333
737.941106	2052.030788	25.750000
738.424784	2054.678134	25.766667
738.908085	2057.886727	25.783333
739.230902	2061.147079	25.800000
740.195650	2064.211497	25.816667
740.359108	2065.843614	25.833333
741.003264	2068.449496	25.850000
741.487311	2070.545233	25.866667
741.971358	2072.641972	25.883333
742.455027	2075.301418	25.900000
742.939072	2077.400406	25.916667
743.261503	2081.236788	25.933333
744.066136	2083.802279	25.950000
744.389695	2085.954697	25.966667
745.033088	2089.699087	25.983333
745.678367	2090.628273	26.000000
745.680202	2094.010332	26.016667
746.484452	2097.147567	26.033333
746.968112	2099.821273	26.050000
747.452149	2101.931731	26.066667
748.096669	2103.993830	26.083333
748.580705	2106.106303	26.100000
749.225223	2108.170434	26.116667
749.388671	2109.817877	26.133333
750.032809	2112.449738	26.150000
750.517222	2114.000017	26.166667
751.000875	2116.683708	26.183333
751.484907	2118.802198	26.200000
751.646833	2122.721424	26.216667
752.450688	2126.446516	26.233333
752.934717	2128.569479	26.250000
753.579229	2130.644195	26.266667
754.062876	2133.337504	26.283333
754.387181	2134.375874	26.300000
754.548336	2139.445408	26.316667
755.513047	2142.565390	26.333333
755.675342	2145.933601	26.350000
756.479567	2149.107284	26.366667
757.123690	2151.761948	26.383333
757.447228	2153.945796	26.400000
758.091349	2156.603279	26.416667
758.897482	2156.928582	26.433333
759.060919	2158.592829	26.450000
759.384838	2160.208499	26.466667
759.868090	2163.490634	26.483333
760.511440	2167.298045	26.500000
760.674108	2170.110638	26.516667
761.477937	2173.874153	26.533333
762.283301	2175.347852	26.550000
762.446349	2177.591682	26.566667
762.769495	2180.361050	26.583333
763.413606	2183.033888	26.600000
763.575498	2187.003968	26.616667
764.700669	2190.108234	26.633333
764.863327	2192.933677	26.650000
765.507433	2195.613696	26.666667
766.313563	2195.944196	26.683333
766.476991	2197.621736	26.700000
766.800129	2200.402534	26.716667
767.122108	2204.913716	26.733333
767.925919	2208.705179	26.750000
768.570019	2211.394284	26.766667
769.214891	2212.930257	26.783333
769.539184	2213.987166	26.800000
769.862316	2216.777219	26.816667
770.506800	2218.893055	26.833333
771.151670	2220.431732	26.850000
771.636058	2222.019863	26.866667
771.959575	2224.235975	26.883333
772.282315	2227.610833	26.900000
772.926407	2230.310954	26.916667
773.249145	2233.689862	26.933333
773.892458	2237.553359	26.950000
774.536935	2239.678795	26.966667
774.860057	2242.483364	26.983333
775.343661	2245.240696	27.000000
776.148230	2247.902070	27.016667
776.310866	2250.760019	27.033333
776.793687	2254.685714	27.050000
777.437769	2257.401149	27.066667
777.599622	2261.429426	27.083333
778.563885	2265.217224	27.100000
779.370400	2264.973804	27.116667
779.533812	2266.674623	27.133333
780.017798	2268.862121	27.150000
780.180427	2271.731711	27.166667
780.822936	2276.793774	27.183333
781.466618	2280.106418	27.200000
781.950600	2282.299893	27.216667
782.755546	2284.397167	27.233333
782.918562	2286.689858	27.250000
783.723899	2288.203520	27.266667
784.047788	2289.863523	27.283333
784.210016	2293.330912	27.300000
784.692815	2297.289929	27.316667
785.336095	2301.203420	27.333333
786.140248	2304.484016	27.350000
786.785886	2304.877369	27.366667
787.110559	2305.367828	27.383333
787.272780	2308.845519	27.400000
787.755571	2312.816676	27.416667
788.077483	2317.428059	27.433333
788.720357	2321.946424	27.450000
789.524896	2324.651322	27.466667
790.168951	2327.406243	27.483333
790.814587	2327.802472	27.500000
790.817107	2330.162742	27.516667
791.782521	2332.233555	27.533333
792.106796	2333.317756	27.550000
792.429488	2336.765426	27.566667
792.912660	2340.166922	27.583333
793.396228	2342.979021	27.600000
794.201552	2344.512309	27.616667
794.364549	2346.831559	27.633333
794.686838	2350.880499	27.650000
795.329692	2355.428693	27.666667
796.134218	2358.152588	27.683333
796.779056	2359.739409	27.700000
797.102930	2361.423378	27.716667
797.587285	2363.059638	27.733333
798.071242	2365.290478	27.750000
798.233437	2368.807492	27.766667
799.037958	2371.539008	27.783333
799.522311	2373.178687	27.800000
799.684104	2377.296123	27.816667
800.488222	2380.628017	27.833333
800.972174	2382.866610	27.850000
801.294844	2386.346822	27.866667
801.938876	2389.136297	27.883333
802.101061	2392.668714	27.900000
803.065655	2395.962628	27.916667
803.549202	2398.805564	27.933333
804.033148	2401.052165	27.950000
804.517094	2403.299774	27.966667
804.840155	2406.194860	27.983333
805.644663	2408.947242	28.000000
805.968926	2410.048643	28.016667
806.130299	2414.793203	28.033333
807.095285	2417.502268	28.050000
807.418342	2420.405088	28.066667
808.223246	2422.565172	28.083333
808.547507	2423.669615	28.100000
808.870562	2426.575861	28.116667
809.514176	2429.988593	28.133333
810.158998	2431.599838	28.150000
810.482050	2434.510427	28.166667
810.805503	2436.820817	28.183333
810.966860	2441.588391	28.200000
812.091915	2444.867039	28.216667
812.414961	2447.784712	28.233333
813.219857	2449.957071	28.250000
813.221938	2452.973334	28.266667
813.704250	2457.658816	28.283333
814.347851	2461.091741	28.300000
815.313630	2462.617633	28.316667
815.476999	2464.383379	28.333333
816.282295	2465.958318	28.350000
816.123482	2469.636088	28.366667
817.088042	2472.981295	28.383333
817.411485	2475.308318	28.400000
818.215966	2478.099017	28.416667
818.700702	2479.167963	28.433333
818.702365	2482.806322	28.450000
819.506844	2485.601136	28.466667
820.151654	2487.231045	28.483333
819.992425	2491.529712	28.500000
820.956975	2494.889360	28.516667
821.280004	2497.833954	28.533333
822.084070	2501.245491	28.550000
822.568393	2502.928274	28.566667
822.730121	2507.143022	28.583333
823.373701	2510.608240	28.600000
823.696724	2513.561166	28.616667
824.661673	2516.325111	28.633333
825.145994	2518.012833	28.650000
825.308941	2520.406865	28.666667
826.273888	2523.174671	28.683333
826.437653	2524.348882	28.700000
827.081225	2527.825421	28.716667
827.565953	2528.905477	28.733333
827.888969	2531.868380	28.750000
828.854322	2534.030574	28.766667
829.018495	2534.595065	28.783333
829.180207	2538.833499	28.800000
829.662470	2543.592791	28.816667
830.306033	2547.081709	28.833333
830.949596	2550.572883	28.850000
831.594391	2552.224361	28.866667
832.078292	2554.538013	28.883333
832.563016	2555.624024	28.900000
832.564235	2559.925341	28.916667
833.688825	2563.897572	28.933333
833.691278	2566.358508	28.950000
834.655795	2569.767271	28.966667
835.140104	2571.472521	28.983333
835.785720	2571.898885	29.000000
836.109547	2573.652315	29.016667
836.594267	2574.742614	29.033333
836.595891	2578.441411	29.050000
837.238199	2583.804241	29.066667
837.399473	2588.696333	29.083333
838.524048	2592.690304	29.100000
839.169248	2593.737413	29.116667
839.492656	2596.116219	29.133333
839.976544	2598.448732	29.150000
840.459603	2602.020298	29.166667
840.782178	2605.641346	29.183333
841.586197	2609.122876	29.200000
841.909600	2611.508139	29.216667
842.714448	2613.752736	29.233333
843.039097	2614.278637	29.250000
843.522564	2617.239610	29.266667
844.167344	2618.913111	29.283333
844.329431	2622.592165	29.300000
844.973794	2624.888835	29.316667
845.457257	2627.855439	29.333333
845.779822	2631.492855	29.350000
846.584246	2634.368608	29.366667
846.747161	2636.811736	29.383333
847.551166	2640.313373	29.400000
847.874561	2642.711866	29.416667
848.357183	2646.935152	29.433333
849.162438	2648.571216	29.450000
849.164030	2652.315745	29.466667
850.128510	2655.780160	29.483333
850.451901	2658.185123	29.500000
851.096253	2660.497032	29.516667
851.419642	2662.903997	29.533333
851.903092	2665.890597	29.550000
852.547023	2668.831771	29.566667
853.031310	2670.569048	29.583333
853.515178	2672.933290	29.600000
853.998625	2675.925233	29.616667
854.321169	2679.592732	29.633333
854.803773	2683.842979	29.650000
855.286795	2687.468346	29.666667
856.251681	2690.327048	29.683333
856.897287	2690.767680	29.700000
857.222351	2690.673890	29.716667
857.223927	2694.444492	29.733333
857.706523	2698.705646	29.750000
858.189118	2702.969820	29.766667
858.993095	2706.513498	29.783333
859.798337	2708.169142	29.800000
859.961231	2710.642884	29.816667
860.766472	2712.299910	29.833333
860.929365	2714.775395	29.850000
861.412797	2717.789250	29.866667
861.895805	2721.435997	29.883333
862.378812	2725.084975	29.900000
863.022722	2728.057386	29.916667
863.827959	2729.720094	29.933333
863.991694	2730.937933	29.950000
864.475545	2733.327638	29.966667
864.798065	2737.030846	29.983333
865.280641	2741.322915	30.000000
865.763639	2744.984234	30.016667
866.567174	2749.188618	30.033333
866.890113	2752.266930	30.050000
867.694494	2755.206904	30.066667
868.179188	2756.336726	30.083333
868.663883	2757.466816	30.100000
868.987244	2759.914219	30.116667
869.470235	2763.587184	30.133333
869.632688	2766.719558	30.150000
870.274878	2772.259224	30.166667
871.239733	2775.163154	30.183333
871.723998	2776.934219	30.200000
872.369170	2778.022195	30.216667
872.533326	2778.612814	30.233333
872.856255	2781.706413	30.250000
873.500145	2784.708550	30.266667
873.823072	2787.805251	30.283333
874.145142	2792.180391	30.300000
875.109562	2795.733797	30.316667
875.432485	2798.836069	30.333333
875.915888	2801.893451	30.350000
876.399719	2804.312631	30.366667
876.882691	2808.012905	30.383333
877.687911	2809.701494	30.400000
877.850777	2812.216750	30.416667
878.494227	2815.875531	30.433333
879.138964	2817.613046	30.450000
879.461880	2820.726528	30.466667
880.107046	2821.824049	30.483333
880.429960	2824.939726	30.500000
881.074265	2827.322204	30.516667
881.718569	2829.705716	30.533333
881.720519	2832.918050	30.550000
882.685784	2835.211261	30.566667
882.849074	2837.093855	30.583333
883.170689	2842.147639	30.600000
883.813695	2846.468847	30.616667
884.296650	2850.194985	30.633333
884.940516	2853.232487	30.650000
885.745295	2855.580467	30.666667
886.068629	2858.068081	30.683333
886.553309	2859.219886	30.700000
886.554816	2863.092461	30.716667
887.518774	2867.336248	30.733333
888.163500	2869.090049	30.750000
888.486398	2872.229668	30.766667
889.452518	2873.246080	30.783333
889.294839	2875.232464	30.800000
889.938697	2878.282985	30.816667
890.582987	2880.687669	30.833333
890.423571	2885.266989	30.850000
891.225734	2891.517813	30.866667
892.030067	2894.530451	30.883333
892.674352	2896.941727	30.900000
893.319507	2898.055704	30.916667
893.322304	2900.003294	30.933333
893.966153	2903.066452	30.950000
894.128559	2906.269175	30.966667
894.609746	2912.633196	30.983333
895.574117	2916.261552	31.000000
896.057916	2918.727689	31.016667
896.863548	2919.800369	31.033333
897.187739	2921.011126	31.050000
897.350575	2923.571170	31.066667
897.833498	2927.344206	31.083333
898.315546	2932.424282	31.100000
899.119865	2935.457987	31.116667
899.603659	2937.931974	31.133333
900.087890	2939.753743	31.150000
900.572120	2941.576094	31.166667
900.734513	2944.797959	31.183333
901.537951	2949.146192	31.200000
901.860822	2952.325939	31.216667
902.504215	2956.070417	31.233333
903.309403	2957.806182	31.250000
903.472668	2959.725629	31.266667
903.955577	2963.520425	31.283333
904.438924	2966.661595	31.300000
904.922270	2969.804332	31.316667
905.726576	2972.857211	31.333333
906.050319	2974.735420	31.350000
906.694583	2977.179657	31.366667
907.179246	2978.356476	31.383333
907.502547	2980.893632	31.400000
908.146369	2983.997980	31.416667
908.309629	2985.925271	31.433333
908.952567	2990.348367	31.450000
909.596385	2993.457455	31.466667
909.919683	2996.000609	31.483333
910.563940	2998.453551	31.500000
911.208198	3000.907529	31.516667
911.210090	3004.204359	31.533333
912.175307	3006.569479	31.550000
912.016717	3009.914623	31.566667
912.979720	3015.584414	31.583333
913.463935	3017.429954	31.600000
913.785897	3021.966014	31.616667
914.751552	3023.676965	31.633333
915.075728	3024.908935	31.650000
915.559498	3027.419136	31.666667
916.043267	3029.930352	31.683333
916.366111	3033.150353	31.700000
917.331319	3035.527495	31.716667
917.173608	3037.560977	31.733333
918.137927	3041.266112	31.750000
918.300287	3044.537149	31.766667
918.783162	3048.382684	31.783333
919.426516	3052.185078	31.800000
920.070313	3055.325231	31.816667
920.393594	3057.892928	31.833333
921.037836	3060.370931	31.850000
921.039263	3064.361851	31.866667
922.003571	3068.083040	31.883333
922.486883	3071.276414	31.900000
923.291601	3073.714492	31.916667
923.616217	3074.290213	31.933333
923.939046	3077.532048	31.950000
924.583282	3080.018000	31.966667
924.906556	3082.595490	31.983333
925.389416	3086.463592	32.000000
926.193682	3089.575668	32.016667
926.356922	3091.534119	32.033333
927.000258	3095.362282	32.050000
927.484009	3097.900591	32.066667
927.805934	3102.491874	32.083333
928.771572	3104.228233	32.100000
928.773880	3106.905553	32.116667
929.578139	3110.027866	32.133333
929.740028	3114.002381	32.150000
930.383356	3117.843761	32.166667
931.187611	3120.971497	32.183333
931.349945	3124.281164	32.200000
931.993719	3127.457155	32.216667
932.798871	3129.246373	32.233333
932.961653	3131.888208	32.250000
933.605874	3134.395916	32.266667
933.929134	3136.994709	32.283333
934.411522	3141.567495	32.300000
934.894810	3144.797063	32.316667
935.378096	3148.028201	32.333333
936.182793	3150.497329	32.350000
936.666529	3153.057429	32.366667
936.668373	3156.427518	32.383333
937.472164	3160.248961	32.400000
937.794965	3163.532569	32.416667
938.598753	3167.358204	32.433333
938.922458	3169.294331	32.450000
939.405736	3172.537430	32.466667
940.210427	3175.016395	32.483333
940.534582	3176.278704	32.500000
941.017859	3179.525304	32.516667
941.501587	3182.096814	32.533333
941.823928	3186.068033	32.550000
942.467681	3189.274526	32.566667
942.951407	3191.849830	32.583333
943.596066	3193.703602	32.600000
944.080245	3195.602753	32.616667
944.403035	3198.903593	32.633333
944.886304	3202.161227	32.650000
945.369117	3206.099302	32.666667
945.851473	3210.718914	32.683333
946.816633	3213.168467	32.700000
946.819369	3215.207473	32.716667
947.462656	3219.108376	32.733333
947.945919	3222.375755	32.750000
948.590116	3224.919343	32.766667
948.912896	3228.234213	32.783333
949.878052	3230.690849	32.800000
950.202656	3231.282864	32.816667
950.687285	3232.511727	32.833333
951.010519	3235.148709	32.850000
951.172817	3238.513234	32.866667
951.654701	3243.837223	32.883333
952.297062	3249.120604	32.900000
953.101732	3251.630162	32.916667
953.424504	3254.957852	32.933333
954.068235	3258.198056	32.950000
954.551943	3260.800272	32.966667
954.713773	3264.861213	32.983333
955.678460	3268.017211	33.000000
956.162624	3269.938284	33.016667
956.807268	3271.815485	33.033333
957.292809	3271.682113	33.050000
957.776972	3273.604391	33.066667
957.779237	3276.346090	33.083333
958.262021	3280.327162	33.100000
958.743884	3285.683149	33.116667
959.386684	3290.311852	33.133333
959.869923	3293.613612	33.150000
960.512720	3298.247587	33.166667
961.157358	3300.133170	33.183333
961.319635	3303.528326	33.200000
961.641468	3308.257510	33.216667
962.444737	3312.856830	33.233333
962.767028	3316.902772	33.250000
963.571218	3320.128557	33.266667
964.376794	3321.286573	33.283333
965.022813	3321.109570	33.300000
965.026453	3321.799320	33.316667
965.348740	3325.850610	33.333333
965.992910	3328.434777	33.350000
965.993310	3333.959826	33.366667
967.117990	3337.796842	33.383333
967.441198	3340.473964	33.400000
968.085828	3342.372053	33.416667
968.408571	3345.742903	33.433333
968.891792	3349.071163	33.450000
969.214069	3353.137741	33.466667
970.017319	3357.767281	33.483333
970.500536	3361.101195	33.500000
971.144232	3364.392610	33.516667
971.628843	3365.647933	33.533333
972.273932	3366.859469	33.550000
972.758542	3368.115342	33.566667
972.761249	3370.197866	33.583333
973.243066	3375.621816	33.600000
973.725812	3379.659365	33.616667
974.368104	3385.046259	33.633333
975.333684	3386.869480	33.650000
975.657346	3388.869210	33.666667
976.141486	3390.825550	33.683333
976.304668	3392.870379	33.700000
976.625528	3399.052113	33.716667
977.268277	3403.756209	33.733333
977.750545	3408.507270	33.750000
978.393291	3413.217502	33.766667
979.519812	3414.306942	33.783333
979.683925	3414.961429	33.800000
980.168061	3416.925281	33.816667
980.170290	3419.720021	33.833333
981.134458	3423.650983	33.850000
981.457644	3426.360552	33.866667
981.940371	3430.426778	33.883333
982.745462	3432.307483	33.900000
983.069115	3434.320142	33.916667
983.391360	3438.434690	33.933333
983.874552	3441.806843	33.950000
984.035375	3447.371717	33.966667
985.159541	3451.976456	33.983333
985.322241	3454.740252	34.000000
985.964966	3459.480979	34.016667
986.609572	3461.413855	34.033333
987.093699	3463.390992	34.050000
987.416875	3466.115380	34.066667
988.222430	3467.303390	34.083333
988.545605	3470.029321	34.100000
989.028787	3473.416334	34.116667
989.512440	3476.100916	34.133333
989.996092	3478.786521	34.150000
990.640695	3480.725124	34.166667
990.641964	3484.952674	34.183333
991.284676	3489.713344	34.200000
991.605954	3495.269800	34.216667
992.891997	3497.744904	34.233333
993.056105	3498.407367	34.250000
993.217847	3502.600983	34.266667
994.181982	3506.579400	34.283333
994.505148	3509.319913	34.300000
994.666885	3513.519452	34.316667
995.631965	3516.088697	34.333333
996.276561	3518.038060	34.350000
996.921630	3519.280076	34.366667
997.085736	3519.944610	34.383333
997.408423	3523.398471	34.400000
997.891114	3527.519115	34.416667
998.052370	3532.437796	34.433333
999.015544	3537.852239	34.450000
999.499180	3540.560994	34.466667
999.982340	3543.980867	34.483333
1000.626454	3546.648607	34.500000
1000.789607	3548.736697	34.516667
1001.753725	3552.741409	34.533333
1001.756874	3554.163390	34.550000
1002.399079	3559.680682	34.566667
1003.204144	3561.599339	34.583333
1003.366817	3564.403509	34.600000
1004.009971	3568.503554	34.616667
1004.494078	3570.511225	34.633333
1004.816272	3574.701097	34.650000
1005.620379	3578.050427	34.666667
1005.783048	3580.860564	34.683333
1006.264761	3586.440628	34.700000
1007.229822	3589.038053	34.716667
1007.392009	3592.566629	34.733333
1008.357547	3594.451720	34.750000
1008.360212	3596.596048	34.766667
1009.163354	3601.386173	34.783333
1009.648413	3601.972271	34.800000
1009.649638	3606.265540	34.816667
1010.292297	3611.104911	34.833333
1010.774955	3615.273837	34.850000
1011.578569	3619.359004	34.866667
1012.222664	3622.055076	34.883333
1012.546762	3623.403505	34.900000
1013.190376	3626.818694	34.916667
1013.353994	3628.211000	34.933333
1013.675686	3633.150462	34.950000
1014.318334	3638.007074	34.966667
1014.800982	3642.190729	34.983333
1015.444590	3645.614486	35.000000
1016.410599	3646.795725	35.016667
1016.413255	3648.954088	35.033333
1017.217821	3651.618395	35.050000
1017.219511	3655.218126	35.066667
1017.701670	3660.131753	35.083333
1018.345272	3663.563827	35.100000
1018.826945	3669.204000	35.116667
1019.631506	3671.875820	35.133333
1019.793668	3675.441651	35.150000
1020.275819	3680.367967	35.166667
1021.079893	3683.766524	35.183333
1021.241568	3688.060551	35.200000
1022.367081	3690.653965	35.216667
1022.691655	3691.291818	35.233333
1023.014291	3694.823669	35.250000
1023.659337	3696.100255	35.266667
1023.822462	3698.229045	35.283333
1024.304118	3703.894311	35.300000
1024.947706	3707.346509	35.316667
1025.752258	3710.032698	35.333333
1026.075859	3712.122623	35.350000
1026.720903	3713.402594	35.366667
1026.722088	3717.755345	35.383333
1027.687602	3719.677016	35.400000
1027.849750	3723.264361	35.416667
1028.654297	3725.956586	35.433333
1028.494999	3730.358534	35.450000
1029.458075	3735.919287	35.466667
1029.941175	3739.428718	35.483333
1030.424274	3742.939728	35.500000
1031.229305	3744.911156	35.516667
1031.552899	3747.010623	35.533333
1032.035996	3750.525159	35.550000
1032.841025	3752.498806	35.566667
1032.843662	3754.685273	35.583333
1033.486746	3758.890132	35.600000
1033.809849	3761.722917	35.616667
1034.612920	3766.619118	35.633333
1034.936022	3769.454676	35.650000
1035.258144	3773.752252	35.666667
1035.739763	3779.471694	35.683333
1036.544297	3782.184762	35.700000
1036.866905	3785.757426	35.716667
1037.671437	3788.472858	35.733333
1037.673577	3791.400797	35.750000
1038.154697	3797.865372	35.766667
1038.797274	3802.826428	35.783333
1039.439358	3808.524114	35.800000
1040.566807	3808.228599	35.816667
1040.731387	3808.186383	35.833333
1041.215940	3809.527058	35.850000
1041.218075	3812.462419	35.866667
1041.700168	3817.475068	35.883333
1042.342245	3823.183456	35.900000
1042.825319	3826.732164	35.916667
1043.307406	3831.753556	35.933333
1044.433376	3833.665885	35.950000
1044.436491	3835.137624	35.966667
1044.919561	3838.691751	35.983333
1045.080687	3843.804805	36.000000
1045.883723	3848.752633	36.016667
1046.526774	3853.008132	36.033333
1047.010827	3855.094718	36.050000
1047.654369	3858.615683	36.066667
1048.299889	3859.185658	36.083333
1048.462985	3861.358024	36.100000
1048.946542	3864.185405	36.116667
1049.268630	3868.533314	36.133333
1050.234115	3870.498322	36.150000
1050.557687	3872.631761	36.166667
1050.879772	3876.984219	36.183333
1051.522812	3881.255075	36.200000
1051.684913	3884.913631	36.216667
1052.006001	3890.753741	36.233333
1053.129477	3896.388520	36.250000
1053.452548	3899.270225	36.266667
1054.418027	3901.243934	36.283333
1054.742587	3901.901980	36.300000
1055.066154	3904.043815	36.316667
1055.228745	3906.970160	36.333333
1055.871276	3911.999607	36.350000
1056.515299	3914.803358	36.366667
1057.160317	3916.122096	36.383333
1057.483383	3919.010955	36.400000
1057.644974	3923.429594	36.416667
1058.448475	3927.683549	36.433333
1058.931019	3932.023234	36.450000
1059.253582	3935.662205	36.466667
1059.735624	3940.751040	36.483333
1060.378142	3945.801286	36.500000
1060.861179	3949.404551	36.516667
1061.665171	3952.926173	36.533333
1062.310184	3954.252068	36.550000
1062.794719	3955.619851	36.566667
1063.118276	3957.776021	36.583333
1063.441332	3960.679527	36.600000
1063.762886	3965.825416	36.616667
1064.405894	3970.143623	36.633333
1064.888924	3973.757724	36.650000
1065.532430	3977.331898	36.666667
1065.854479	3981.739217	36.683333
1066.498485	3984.568048	36.700000
1066.982013	3987.439401	36.716667
1067.465037	3991.061128	36.733333
1067.787081	3995.475588	36.750000
1068.430079	3999.809436	36.766667
1068.913100	4003.436530	36.783333
1069.878056	4006.190339	36.800000
1070.041630	4007.650426	36.816667
1070.686636	4008.986629	36.833333
1071.010183	4011.156948	36.850000
1071.654182	4013.996458	36.866667
1071.977728	4016.168129	36.883333
1072.782204	4018.968133	36.900000
1073.105749	4021.141165	36.916667
1073.750754	4022.479984	36.933333
1073.751831	4026.993791	36.950000
1074.072853	4032.932992	36.966667
1074.714828	4038.793606	36.983333
1075.195817	4045.453440	37.000000
1075.677309	4051.363759	37.016667
1076.641748	4054.889823	37.033333
1077.286242	4056.989795	37.050000
1077.931748	4057.580120	37.066667
1078.095315	4059.049208	37.083333
1078.739809	4061.150412	37.100000
1078.581408	4064.213570	37.116667
1079.383339	4070.810958	37.133333
1080.188308	4072.874184	37.150000
1080.349339	4078.129124	37.166667
1080.992814	4081.749510	37.183333
1081.637811	4083.099550	37.200000
1081.960838	4086.046837	37.216667
1082.282341	4091.268560	37.233333
1082.763811	4097.210640	37.250000
1083.245787	4102.397847	37.266667
1084.049225	4106.746953	37.283333
1084.693710	4108.860937	37.300000
1085.339212	4109.456509	37.316667
1085.502773	4110.934580	37.333333
1085.985762	4114.610386	37.350000
1086.468749	4118.287779	37.366667
1087.113232	4120.404966	37.383333
1087.597747	4121.803128	37.400000
1088.241719	4124.682069	37.416667
1088.243272	4128.486627	37.433333
1089.208197	4131.286144	37.450000
1089.209748	4135.093483	37.466667
1089.851675	4141.025023	37.483333
1090.495132	4144.673059	37.500000
1090.817123	4149.167061	37.516667
1091.460066	4153.581736	37.533333
1091.943043	4157.275975	37.550000
1092.747484	4160.126563	37.566667
1092.750051	4162.417983	37.583333
1093.713944	4166.758115	37.600000
1094.198965	4167.400267	37.616667
1094.521972	4170.376705	37.633333
1095.165421	4174.037633	37.650000
1095.649929	4175.445500	37.666667
1095.972934	4178.424747	37.683333
1096.455903	4182.129892	37.700000
1096.778394	4185.877263	37.716667
1097.099344	4191.925034	37.733333
1097.741758	4197.128717	37.750000
1098.223180	4203.143333	37.766667
1098.866105	4207.585939	37.783333
1099.509543	4211.262844	37.800000
1100.314486	4213.364395	37.816667
1100.800019	4213.242816	37.833333
1100.641070	4217.124951	37.850000
1101.442921	4223.841198	37.866667
1102.086869	4226.755892	37.883333
1102.570340	4229.712101	37.900000
1103.215319	4231.089461	37.916667
1103.699820	4232.507557	37.933333
1104.184321	4233.925930	37.950000
1104.346836	4236.965637	37.966667
1104.507285	4243.088401	37.983333
1105.470117	4249.013152	38.000000
1105.792589	4252.788850	38.016667
1106.596490	4256.445065	38.033333
1107.080471	4258.639587	38.050000
1107.080434	4264.817048	38.066667
1107.722820	4270.064302	38.083333
1108.526717	4273.727937	38.100000
1109.169617	4278.206991	38.116667
1109.976103	4278.005708	38.133333
1110.140163	4278.739039	38.150000
1110.945613	4280.085158	38.166667
1111.109673	4280.818696	38.183333
1111.431617	4285.382211	38.200000
1112.075032	4289.093020	38.216667
1112.397492	4292.885836	38.233333
1113.201901	4295.784594	38.250000
1113.364922	4298.069845	38.266667
1113.686340	4303.417647	38.283333
1114.489707	4307.872019	38.300000
1114.490168	4313.305717	38.316667
1115.130973	4320.912914	38.333333
1115.934334	4325.376066	38.350000
1116.255742	4330.739516	38.366667
1117.220097	4334.389438	38.383333
1117.704586	4335.825869	38.400000
1118.188554	4338.041044	38.416667
1118.834041	4338.659558	38.433333
1118.996532	4341.734325	38.450000
1119.800930	4344.650162	38.466667
1119.964464	4346.168444	38.483333
1120.446863	4350.724800	38.500000
1121.252303	4352.084303	38.516667
1121.253792	4355.983517	38.533333
1121.896141	4361.285294	38.550000
1122.378012	4366.630064	38.566667
1122.700974	4369.674202	38.583333
1123.504318	4374.162585	38.600000
1123.826230	4378.772821	38.616667
1124.791096	4381.661703	38.633333
1125.275579	4383.106560	38.650000
1125.759014	4386.116521	38.666667
1126.405546	4385.174846	38.683333
1126.407551	4388.305027	38.700000
1127.050936	4392.059981	38.716667
1127.373892	4395.112833	38.733333
1127.856275	4399.693999	38.750000
1128.660659	4402.630164	38.766667
1128.823136	4405.726302	38.783333
1129.465465	4411.057583	38.800000
1129.950471	4411.723040	38.816667
1130.271845	4417.137277	38.833333
1130.753693	4422.514882	38.850000
1131.235539	4427.895551	38.866667
1131.877860	4433.239675	38.883333
1132.521760	4436.226976	38.900000
1132.844179	4440.081334	38.916667
1133.648027	4443.818555	38.933333
1133.972026	4445.313907	38.950000
1134.454919	4449.132530	38.966667
1135.419768	4452.046266	38.983333
1135.261809	4454.449659	39.000000
1136.227185	4456.576995	39.016667
1136.229174	4459.730444	39.033333
1136.710477	4465.921795	39.050000
1137.353312	4470.498878	39.066667
1137.996674	4474.288583	39.083333
1138.318554	4478.948746	39.100000
1139.122919	4481.912270	39.116667
1139.284320	4486.615608	39.133333
1140.088154	4490.372683	39.150000
1140.250611	4493.497611	39.166667
1141.214390	4498.009818	39.183333
1141.698329	4500.266816	39.200000
1142.182268	4502.524410	39.216667
1142.505199	4505.614076	39.233333
1143.150144	4507.041385	39.250000
1143.633020	4510.885923	39.266667
1144.438971	4511.482184	39.283333
1144.119996	4514.732052	39.300000
1144.762282	4520.127157	39.316667
1145.244623	4524.770821	39.333333
1146.047382	4530.132490	39.350000
1146.531315	4532.397718	39.366667
1147.014184	4536.252782	39.383333
1147.497584	4539.314480	39.400000
1148.141459	4542.338059	39.416667
1148.142364	4547.110222	39.433333
1149.428142	4549.979888	39.450000
1149.109158	4553.241804	39.466667
1150.072382	4558.581018	39.483333
1150.556311	4560.853486	39.500000
1150.878162	4565.556441	39.516667
1151.844052	4566.916317	39.533333
1151.846017	4570.105475	39.550000
1152.328340	4574.773952	39.566667
1152.972208	4577.809520	39.583333
1153.294053	4582.520806	39.600000
1154.096789	4587.916224	39.616667
1154.581784	4588.598202	39.633333
1154.903625	4593.314800	39.650000
1155.548024	4595.557140	39.666667
1155.709387	4600.316057	39.683333
1156.673129	4604.882701	39.700000
1157.156513	4607.967337	39.716667
1157.479958	4610.291211	39.733333
1157.963341	4613.377656	39.750000
1158.446187	4617.266299	39.766667
1159.089508	4621.117709	39.783333
1159.895453	4621.725135	39.800000
1159.897406	4624.931937	39.816667
1160.540724	4628.786616	39.833333
1160.702614	4632.759251	39.850000
1161.666345	4637.342396	39.866667
1161.828770	4640.515387	39.883333
1162.471546	4645.179904	39.900000
1163.115398	4648.239250	39.916667
1163.599312	4650.534456	39.933333
1163.761734	4653.711728	39.950000
1164.403967	4659.187322	39.966667
1164.724707	4665.548320	39.983333
1165.850521	4667.693264	40.000000
1166.175035	4668.421272	40.016667
1166.658405	4671.527106	40.033333
1166.981839	4673.866811	40.050000
1167.303652	4678.625128	40.066667
1167.624924	4684.192174	40.083333
1168.427621	4689.646626	40.100000
1168.909905	4694.373913	40.116667
1169.553204	4698.257298	40.133333
1170.198668	4698.910967	40.150000
1170.843049	4701.180421	40.166667
1171.167019	4702.719390	40.183333
1171.328889	4706.721844	40.200000
1172.132119	4711.380705	40.216667
1172.455546	4713.730236	40.233333
1173.098840	4717.621792	40.250000
1173.582742	4719.934459	40.266667
1174.066101	4723.057344	40.283333
1174.388984	4726.219653	40.300000
1174.871799	4730.154774	40.316667
1175.354069	4734.902035	40.333333
1175.836339	4739.651571	40.350000
1175.997112	4745.291340	40.366667
1177.281756	4749.854309	40.383333
1177.605720	4751.401370	40.400000
1178.089073	4754.534557	40.416667
1178.572968	4756.856433	40.433333
1179.056319	4759.991444	40.450000
1179.539670	4763.127492	40.466667
1180.023019	4766.264578	40.483333
1180.344803	4771.067649	40.500000
1181.309032	4774.906455	40.516667
1181.151022	4777.386150	40.533333
1181.953683	4782.894353	40.550000
1182.276007	4786.890648	40.566667
1182.918189	4792.442352	40.583333
1183.562007	4795.550844	40.600000
1184.045350	4798.698484	40.616667
1184.528692	4801.847162	40.633333
1184.851010	4805.851065	40.650000
1185.172781	4810.673027	40.666667
1185.814954	4816.238121	40.683333
1186.619243	4819.316433	40.700000
1187.102032	4823.289301	40.716667
1187.746392	4825.590248	40.733333
1188.231372	4826.294085	40.750000
1188.555328	4827.853851	40.766667
1189.038116	4831.830321	40.783333
1189.199403	4836.702801	40.800000
1190.003138	4840.606921	40.816667
1190.325447	4844.626384	40.833333
1191.129180	4848.533780	40.850000
1191.774085	4850.021464	40.866667
1191.935915	4854.082636	40.883333
1192.579720	4857.211587	40.900000
1192.580524	4862.133933	40.916667
1193.221577	4869.370334	40.933333
1194.186329	4872.428639	40.950000
1194.509179	4875.639120	40.966667
1195.152980	4878.775111	40.983333
1195.958907	4879.408285	41.000000
1195.961907	4881.052321	41.016667
1196.604604	4885.834984	41.033333
1196.766976	4889.087559	41.050000
1197.570697	4893.013322	41.066667
1197.731965	4897.914790	41.083333
1198.375208	4901.881785	41.100000
1199.017898	4906.674439	41.116667
1199.501217	4909.858289	41.133333
1200.465960	4912.930353	41.150000
1199.990845	4909.745425	41.166667
1199.678414	4903.228094	41.183333
1199.849611	4893.308745	41.200000
1199.220630	4880.297530	41.216667
1198.912590	4867.226505	41.233333
1198.284138	4853.426552	41.250000
1197.815051	4841.244821	41.266667
1197.347052	4827.440346	41.283333
1196.395972	4816.219316	41.300000
1196.086238	4805.674954	41.316667
1195.616569	4794.363233	41.333333
1194.985870	4783.916553	41.350000
1194.676115	4773.404011	41.366667
1194.368533	4759.648865	41.383333
1193.576791	4750.087201	41.400000
1193.268102	4737.984998	41.416667
1192.638451	4725.973193	41.433333
1192.329201	4714.708133	41.450000
1191.378039	4703.608790	41.466667
1190.745655	4695.677220	41.483333
1190.595776	4686.021224	41.500000
1190.287578	4673.185827	41.516667
1189.818353	4661.210211	41.533333
1189.349659	4648.443674	41.550000
1188.237973	4637.455159	41.566667
1188.086982	4629.458824	41.583333
1187.134145	4620.859869	41.600000
1186.822133	4613.717174	41.616667
1186.672203	4604.136572	41.633333
1185.881437	4593.119288	41.650000
1185.570483	4584.396336	41.666667
1185.422677	4571.647198	41.683333
1184.312003	4559.147666	41.700000
1183.840020	4551.289907	41.716667
1183.047080	4543.516513	41.733333
1183.216459	4536.310704	41.750000
1182.747661	4523.699365	41.766667
1182.117843	4511.937016	41.783333
1181.647430	4501.735877	41.800000
1180.856057	4491.623709	41.816667
1180.384569	4483.027082	41.833333
1180.074082	4473.607346	41.850000
1178.961737	4463.603027	41.866667
1178.809068	4458.111320	41.883333
1178.016078	4450.412139	41.900000
1178.025466	4442.521788	41.916667
1177.555533	4431.603984	41.933333
1177.084537	4422.272387	41.950000
1176.614062	4412.163247	41.966667
1175.822100	4402.929400	41.983333
1175.511563	4393.585481	42.000000
1174.880066	4384.329802	42.016667
1174.248038	4375.866528	42.033333
1173.936434	4368.114054	42.050000
1173.626922	4357.238999	42.066667
1172.995402	4348.018154	42.083333
1172.524352	4338.766324	42.100000
1171.731821	4330.383137	42.116667
1171.420715	4321.887600	42.133333
1170.788128	4314.258094	42.150000
1170.316014	4306.594785	42.166667
1170.005936	4296.565562	42.183333
1169.374376	4287.403361	42.200000
1169.223722	4278.905442	42.216667
1168.433232	4267.475344	42.233333
1167.640139	4259.930078	42.250000
1167.328473	4252.270327	42.266667
1166.856843	4243.883900	42.283333
1166.385209	4235.504926	42.300000
1166.075081	4225.549723	42.316667
1165.442959	4217.227360	42.333333
1165.132818	4207.291238	42.350000
1164.180761	4197.527328	42.366667
1163.707554	4191.495995	42.383333
1163.556843	4183.082727	42.400000
1162.603226	4175.647190	42.416667
1162.612469	4167.974406	42.433333
1161.981852	4157.405147	42.450000
1161.189212	4149.184750	42.466667
1161.199465	4140.003621	42.483333
1160.086371	4131.116366	42.500000
1159.773612	4125.087875	42.516667
1159.301906	4116.815321	42.533333
1158.829685	4109.312419	42.550000
1158.519468	4099.490209	42.566667
1158.048766	4089.719197	42.583333
1157.095607	4081.601256	42.600000
1156.783844	4074.086381	42.616667
1155.990136	4067.459439	42.633333
1155.998811	4060.632452	42.650000
1155.367097	4051.701631	42.666667
1155.216809	4042.656407	42.683333
1154.747080	4031.434124	42.700000
1153.794391	4022.614467	42.716667
1153.322623	4014.434690	42.733333
1152.850850	4006.262358	42.750000
1152.056603	4000.439846	42.766667
1151.905777	3992.197848	42.783333
1151.273513	3984.087191	42.800000
1150.801218	3976.694056	42.816667
1150.490403	3967.764185	42.833333
1149.858627	3958.925968	42.850000
1149.709281	3948.473867	42.866667
1148.434076	3942.066310	42.883333
1148.282212	3935.373262	42.900000
1147.649412	3928.062381	42.916667
1147.015107	3922.998377	42.933333
1147.024712	3914.785297	42.950000
1146.875332	3904.384433	42.966667
1145.923056	3894.948557	42.983333
1145.774159	3883.826897	43.000000
1144.499419	3876.726342	43.016667
1144.186546	3870.866636	43.033333
1143.391740	3865.878529	43.050000
1143.561291	3858.417338	43.066667
1143.251389	3848.124060	43.083333
1142.460045	3837.968478	43.100000
1141.988659	3829.219406	43.116667
1141.357283	3819.782718	43.133333
1140.562951	3814.087393	43.150000
1140.251039	3806.795213	43.166667
1139.617672	3800.330055	43.183333
1139.627201	3792.229169	43.200000
1138.834827	3783.610855	43.216667
1138.201449	3777.163553	43.233333
1137.890007	3769.168451	43.250000
1137.418574	3760.489495	43.266667
1136.946644	3752.552113	43.283333
1136.797627	3741.609590	43.300000
1135.844740	3733.085576	43.316667
1135.372793	3725.173873	43.333333
1134.418916	3718.126681	43.350000
1134.427417	3711.560443	43.366667
1133.634500	3703.753992	43.383333
1133.161558	3697.326158	43.400000
1132.367169	3691.715948	43.416667
1132.215178	3685.212533	43.433333
1131.581748	3678.841742	43.450000
1131.591202	3670.853792	43.466667
1130.799715	3660.911018	43.483333
1130.327237	3653.792081	43.500000
1129.855724	3645.231862	43.516667
1129.543715	3638.083721	43.533333
1128.751718	3628.902919	43.550000
1128.439699	3621.768879	43.566667
1127.968164	3613.241787	43.583333
1127.335662	3605.486627	43.600000
1126.864116	3596.976495	43.616667
1126.231121	3589.955859	43.633333
1125.597642	3583.659783	43.650000
1124.962716	3579.522507	43.666667
1124.811147	3572.388452	43.683333
1124.017179	3566.149390	43.700000
1124.026561	3558.267652	43.716667
1123.394024	3550.565525	43.733333
1122.921960	3542.827768	43.750000
1122.450848	3533.669183	43.766667
1121.979729	3524.520934	43.783333
1121.347647	3516.138778	43.800000
1121.036517	3507.678983	43.816667
1120.243944	3499.357838	43.833333
1119.931850	3492.336518	43.850000
1119.621178	3483.191902	43.866667
1118.828588	3474.896692	43.883333
1118.034093	3469.443892	43.900000
1117.561028	3463.200299	43.916667
1117.087960	3456.961704	43.933333
1116.775367	3450.684614	43.950000
1115.980861	3445.249356	43.966667
1115.828741	3438.938151	43.983333
1115.034702	3432.806117	44.000000

1115.043526	3425.756526	44.016667
1114.411374	3417.479434	44.033333
1114.100174	3409.123901	44.050000
1113.629430	3399.415976	44.066667
1112.996789	3391.868559	44.083333
1112.364612	3383.627636	44.100000
1111.731960	3376.095859	44.116667
1111.097897	3370.670707	44.133333
1110.946206	3363.719517	44.150000
1109.992582	3356.295180	44.166667
1109.679468	3350.796678	44.183333
1109.206806	3343.951024	44.200000
1108.733673	3337.808378	44.216667
1108.100525	3331.018396	44.233333
1107.787864	3324.842309	44.250000
1107.315653	3317.324940	44.266667
1106.682492	3310.553487	44.283333
1106.370285	3303.700058	44.300000
1105.898524	3295.510461	44.316667
1105.425829	3288.714604	44.333333
1105.115000	3279.805228	44.350000
1104.482742	3271.685530	44.366667
1103.850478	3263.574710	44.383333
1103.377764	3256.807716	44.400000
1102.745027	3249.402138	44.416667
1102.111825	3242.692408	44.433333
1101.477235	3238.052512	44.450000
1101.325004	3231.907605	44.466667
1100.852730	3224.482761	44.483333
1100.380912	3216.379271	44.500000
1099.747689	3209.699797	44.516667
1099.596819	3201.523504	44.533333
1098.644002	3192.894623	44.550000
1098.009391	3188.286939	44.566667
1097.696653	3182.227194	44.583333
1097.223431	3176.216996	44.600000
1097.233016	3168.032614	44.616667
1096.440653	3159.399283	44.633333
1095.646915	3152.816954	44.650000
1095.335068	3145.427059	44.666667
1094.701346	3139.492035	44.683333
1094.067621	3133.562049	44.700000
1093.432984	3128.993141	44.716667
1093.280693	3122.937672	44.733333
1093.129305	3115.533221	44.750000
1092.497832	3106.242349	44.766667
1091.865446	3098.313982	44.783333
1091.392630	3091.698803	44.800000
1090.598398	3085.853826	44.816667
1090.125123	3079.923944	44.833333
1089.812775	3073.281009	44.850000
1089.018533	3067.451718	44.866667
1089.188068	3060.013401	44.883333
1088.395167	3052.181800	44.900000
1087.762291	3044.984350	44.916667
1087.289891	3037.749205	44.933333
1086.656108	3031.904891	44.950000
1086.182803	3026.020399	44.966667
1085.709941	3019.472844	44.983333
1085.075254	3014.979199	45.000000
1084.923346	3008.351562	45.016667
1084.290440	3001.199538	45.033333
1084.139861	2992.587751	45.050000
1083.507835	2984.122285	45.066667
1082.713987	2977.704775	45.083333
1082.080615	2971.248073	45.100000
1081.445461	2967.449744	45.116667
1081.293080	2961.529153	45.133333
1080.981545	2953.672976	45.150000
1080.348158	2947.239076	45.166667
1079.876132	2939.444552	45.183333
1079.082697	2932.409884	45.200000
1078.769373	2927.223846	45.216667
1078.135969	2920.815257	45.233333
1077.501678	2915.729370	45.250000
1077.349268	2909.852627	45.266667
1076.876773	2902.757848	45.283333
1076.404273	2895.670476	45.300000
1075.931769	2888.590510	45.316667
1075.137859	2882.264683	45.333333
1075.146348	2875.715989	45.350000
1074.032345	2868.186414	45.366667
1073.718988	2863.049394	45.383333
1073.406941	2855.957948	45.400000
1072.773491	2849.617760	45.416667
1072.622352	2841.843057	45.433333
1071.829720	2833.610381	45.450000
1071.356300	2827.895714	45.466667
1070.722832	2821.582619	45.483333
1070.089359	2815.275708	45.500000
1069.775541	2810.827682	45.516667
1069.142496	2803.883516	45.533333
1068.829540	2798.148754	45.550000
1068.678794	2789.786714	45.566667
1067.403377	2783.695317	45.583333
1067.089545	2779.268774	45.600000
1066.455181	2774.292800	45.616667
1065.820382	2769.965220	45.633333
1066.149761	2763.431300	45.650000
1065.357063	2755.297941	45.666667
1065.045369	2747.678289	45.683333
1064.412279	2740.801740	45.700000
1063.296881	2735.353930	45.716667
1063.304417	2730.226984	45.733333
1062.509975	2724.695913	45.750000
1062.035634	2720.356183	45.766667
1062.044448	2713.323619	45.783333
1061.411760	2705.846021	45.800000
1061.099601	2698.921766	45.816667
1060.306847	2690.870800	45.833333
1059.512381	2685.374845	45.850000
1059.037596	2681.698155	45.866667
1058.563661	2676.752760	45.883333
1058.411112	2671.083109	45.900000
1057.938871	2663.608978	45.916667
1057.145238	2656.870506	45.933333
1056.993525	2649.952594	45.950000
1056.199458	2643.861203	45.966667
1055.886407	2638.267314	45.983333
1055.253237	2631.509854	46.000000
1054.619216	2626.020625	46.016667
1054.467481	2619.136145	46.033333
1053.512490	2613.751753	46.050000
1053.038519	2608.860473	46.066667
1052.725869	2602.669793	46.083333
1052.090990	2598.461992	46.100000
1051.938814	2592.234732	46.116667
1051.466510	2584.854576	46.133333
1050.832881	2578.781693	46.150000
1050.360566	2571.417683	46.166667
1049.405128	2566.701524	46.183333
1049.251258	2563.002253	46.200000
1048.939413	2555.610254	46.216667
1048.145700	2548.991217	46.233333
1047.832175	2544.104900	46.250000
1047.519481	2537.978897	46.266667
1047.047966	2529.422141	46.283333
1046.415130	2522.164770	46.300000
1045.298768	2518.155991	46.316667
1045.305775	2513.819352	46.333333
1044.510787	2509.103324	46.350000
1044.357723	2504.202000	46.366667
1044.046657	2495.645818	46.383333
1043.412967	2489.663366	46.400000
1042.940993	2481.791079	46.416667
1042.146400	2476.485734	46.433333
1041.672766	2471.090522	46.450000
1041.199130	2465.700279	46.466667
1040.725490	2460.315006	46.483333
1040.573632	2453.612999	46.500000
1039.458878	2447.203636	46.516667
1039.305780	2442.352410	46.533333
1038.672053	2436.424720	46.550000
1037.876203	2432.994875	46.566667
1037.722688	2428.766051	46.583333
1037.410325	2422.147165	46.600000
1036.937882	2414.973946	46.616667
1036.625916	2407.761783	46.633333
1035.832091	2401.309487	46.650000
1035.198336	2395.424208	46.666667
1034.725466	2388.890607	46.683333
1034.090484	2384.836680	46.700000
1033.938569	2378.219538	46.716667
1033.144316	2372.406080	46.733333
1032.670213	2367.711902	46.750000
1032.196512	2362.417695	46.766667
1031.561921	2357.779801	46.783333
1031.409177	2352.399112	46.800000
1030.614906	2346.612840	46.816667
1030.301674	2341.290529	46.833333
1029.828762	2334.818844	46.850000
1028.873191	2330.300211	46.866667
1028.719627	2326.145506	46.883333
1028.085417	2320.938578	46.900000
1027.932249	2316.191497	46.916667
1027.782286	2306.660784	46.933333
1026.989184	2299.130069	46.950000
1026.195275	2292.803116	46.966667
1025.560645	2288.223926	46.983333
1024.764731	2284.888583	47.000000
1024.610347	2281.958144	47.016667
1023.975311	2277.983525	47.033333
1023.661637	2273.320729	47.050000
1023.349155	2266.879527	47.066667
1023.197149	2260.397334	47.083333
1022.404401	2252.338017	47.100000
1021.448783	2247.890119	47.116667
1021.295574	2243.204317	47.133333
1020.983464	2236.207059	47.150000
1020.349988	2229.905518	47.166667
1020.359621	2221.649333	47.183333
1019.406352	2213.695903	47.200000
1018.932553	2208.547773	47.216667
1017.977697	2202.962922	47.233333
1017.181353	2200.269971	47.250000
1017.026938	2197.384322	47.266667
1016.713611	2192.203692	47.283333
1016.401065	2185.856883	47.300000
1015.927640	2180.150904	47.316667
1015.133245	2174.548371	47.333333
1014.498547	2170.070811	47.350000
1014.184812	2165.499806	47.366667
1013.871854	2159.767162	47.383333
1013.398410	2154.089332	47.400000
1012.603607	2149.096685	47.416667
1012.450731	2143.913906	47.433333
1011.817182	2137.721629	47.450000
1011.182851	2132.696263	47.466667
1010.709387	2127.047808	47.483333
1010.075049	2122.032968	47.500000
1009.761285	2117.503461	47.516667
1009.126554	2113.075687	47.533333
1008.491433	2109.229106	47.550000
1008.338531	2104.085169	47.566667
1008.186784	2097.217842	47.583333
1007.553582	2090.506198	47.600000
1006.920760	2083.228850	47.616667
1006.286777	2077.683203	47.633333
1005.652407	2072.717013	47.650000
1005.339766	2066.512143	47.666667
1004.383655	2062.799627	47.683333
1004.229957	2058.844523	47.700000
1003.756056	2053.848008	47.716667
1003.282535	2048.285744	47.733333
1003.130357	2042.061125	47.750000
1002.015277	2036.139173	47.766667
1001.540980	2031.734074	47.783333
1000.905055	2029.087563	47.800000
1000.590856	2025.207706	47.816667
1000.438279	2019.578675	47.833333
999.965112	2013.487404	47.850000
999.653182	2006.221856	47.866667
999.020657	1998.500000	47.883333
998.226507	1992.532971	47.900000
997.753318	1986.474538	47.916667
996.797542	1982.261851	47.933333
996.482565	1979.544409	47.950000
995.846997	1976.364669	47.966667
995.693254	1972.476350	47.983333
995.380155	1966.955028	48.000000
994.906945	1960.928200	48.016667
994.272871	1955.518736	48.033333
993.477935	1950.724886	48.050000
992.841979	1948.124423	48.066667
992.688221	1944.258233	48.083333
992.214243	1939.376835	48.100000
991.740262	1934.500390	48.116667
991.266652	1929.071368	48.133333
990.792664	1924.205370	48.150000
990.319418	1918.231621	48.166667
990.007023	1911.659897	48.183333
988.730606	1907.060251	48.200000
988.736939	1903.731223	48.216667
988.102450	1898.940881	48.233333
987.788554	1894.609506	48.250000
987.314913	1889.225670	48.266667
986.519560	1885.052601	48.283333
986.366509	1880.132025	48.300000
985.893226	1874.213302	48.316667
984.937751	1869.553151	48.333333
984.623468	1865.798951	48.350000
984.149436	1860.997912	48.366667
983.835885	1856.151855	48.383333
983.362949	1849.714749	48.400000
982.728423	1844.980181	48.416667
982.415961	1838.508386	48.433333
981.942277	1833.188612	48.450000
981.630170	1826.186849	48.466667
980.514543	1821.081493	48.483333
980.200964	1816.276472	48.500000
979.726898	1811.526510	48.516667
979.092710	1806.288024	48.533333
978.778757	1802.041428	48.550000
978.305045	1796.763752	48.566667
977.349151	1792.726814	48.583333
977.356157	1788.392437	48.600000
976.721588	1783.721877	48.616667
976.407983	1778.955738	48.633333
975.773769	1773.755212	48.650000
974.978706	1769.150436	48.666667
974.825214	1764.888126	48.683333
974.351473	1759.653786	48.700000
973.556400	1755.063962	48.716667
973.564462	1749.152976	48.733333
972.609257	1744.088163	48.750000
972.295624	1739.363638	48.766667
971.500178	1735.330776	48.783333
970.864496	1732.321363	48.800000
970.550139	1728.678588	48.816667
970.075653	1724.555142	48.833333
969.600808	1720.969286	48.850000
969.447999	1715.685793	48.866667
968.653252	1710.610553	48.883333
968.500079	1705.871083	48.900000
967.544839	1700.858101	48.916667
967.391660	1696.128999	48.933333
966.757735	1690.496274	48.950000
966.122742	1686.459661	48.966667
965.648938	1681.318085	48.983333
965.013939	1677.290326	49.000000
964.699551	1673.693207	49.016667
964.547765	1666.883026	49.033333
963.592494	1661.916838	49.050000
963.278450	1657.806182	49.066667
962.322468	1653.902587	49.083333
962.007362	1651.375970	49.100000
961.694015	1646.225683	49.116667
961.219476	1642.180984	49.133333
960.906473	1636.517828	49.150000
960.432629	1631.435981	49.166667
959.798648	1625.888614	49.183333
959.646463	1619.674056	49.200000
958.531019	1614.294941	49.216667
958.055763	1611.322352	49.233333
957.741686	1607.260385	49.250000
957.106290	1603.824095	49.266667
956.953736	1598.160660	49.283333
956.158894	1593.227189	49.300000
955.683974	1589.751900	49.316667
955.210439	1584.209243	49.333333
954.414546	1580.843848	49.350000
954.260587	1577.277087	49.366667
953.625866	1572.834355	49.383333
953.312455	1567.778798	49.400000
952.999385	1562.214430	49.416667
952.043684	1557.890557	49.433333
952.051229	1552.750793	49.450000
951.416833	1547.821899	49.466667
950.782777	1542.386687	49.483333
950.148029	1537.982478	49.500000
949.512593	1534.606005	49.516667
949.198124	1531.129973	49.533333
948.563368	1526.738470	49.550000
947.766758	1524.443463	49.566667
947.612425	1521.434872	49.583333
946.976979	1518.073084	49.600000
946.662841	1514.102669	49.616667
946.349382	1509.119411	49.633333
945.875094	1504.701329	49.650000
945.401482	1499.273869	49.666667
944.446073	1494.514559	49.683333
944.452549	1490.970595	49.700000
943.818779	1485.107961	49.716667
943.184326	1480.263471	49.733333
943.191808	1475.219001	49.750000
942.237390	1468.979403	49.766667
941.923893	1464.051899	49.783333
941.128939	1459.285205	49.800000
940.493457	1455.977986	49.816667
940.339762	1452.017659	49.833333
939.383977	1447.818624	49.850000
938.908302	1445.470788	49.866667
938.432961	1442.624435	49.883333
937.957618	1439.780297	49.900000
937.965065	1434.786536	49.916667
937.330905	1429.507132	49.933333
936.856890	1424.681161	49.950000
936.543689	1419.312330	49.966667
935.588544	1414.157898	49.983333
935.435153	1409.743725	50.000000
934.800637	1404.994473	50.016667
934.004969	1401.292765	50.033333
934.012053	1396.841453	50.050000
933.217372	1391.666853	50.066667
932.903810	1386.837036	50.083333
932.268944	1382.609552	50.100000
931.312446	1379.474929	50.116667
930.997556	1376.627353	50.133333
930.361365	1374.377241	50.150000
930.207286	1370.990730	50.166667
929.733878	1365.258965	50.183333
929.098339	1362.036439	50.200000
929.106048	1356.651657	50.216667
928.311656	1351.045744	50.233333
927.676762	1346.860103	50.250000
927.041539	1343.166842	50.266667
926.405660	1340.451558	50.283333
926.412371	1336.556822	50.300000
925.938602	1331.364132	50.316667
925.303693	1327.201591	50.333333
924.990399	1321.970115	50.350000
924.034837	1317.438732	50.366667
923.559430	1314.691561	50.383333
923.084668	1310.979909	50.400000
922.770389	1307.219947	50.416667
922.296269	1302.551557	50.433333
921.500852	1298.475373	50.450000
921.186242	1295.209740	50.466667
920.872918	1290.024282	50.483333
919.917006	1286.015284	50.500000
919.762873	1282.708828	50.516667
919.127604	1279.083144	50.533333
918.813302	1275.356700	50.550000
918.178989	1270.304621	50.566667
917.704196	1266.639775	50.583333
917.068916	1263.031227	50.600000
916.433633	1259.426611	50.616667
916.118998	1256.197160	50.633333
915.804999	1252.019407	50.650000
915.009223	1248.478984	50.666667
914.855703	1244.258050	50.683333
914.060239	1240.251937	50.700000
913.584790	1237.566468	50.716667
913.109973	1233.936765	50.733333
912.474353	1230.836204	50.750000
912.320502	1227.108745	50.766667
912.167596	1221.970050	50.783333
911.372745	1217.048943	50.800000
910.738060	1212.552947	50.816667
910.103055	1208.532817	50.833333
909.627903	1205.403628	50.850000
908.992579	1201.861164	50.866667
908.517109	1199.206895	50.883333
908.684833	1194.471955	50.900000
907.890267	1189.124580	50.916667
907.416354	1184.147072	50.933333
906.781326	1180.161517	50.950000
905.824701	1177.217457	50.966667
905.348906	1175.048605	50.983333
905.194703	1171.845932	51.000000
905.041121	1167.717452	51.016667
904.407011	1162.361194	51.033333
903.450685	1158.971301	51.050000
903.135987	1155.836689	51.066667
902.661420	1151.833488	51.083333
902.025747	1148.811402	51.100000
901.711661	1144.764093	51.116667
900.755012	1141.854660	51.133333
900.760657	1139.551635	51.150000
900.447178	1134.596070	51.166667
899.651932	1130.265788	51.183333
899.177652	1125.835716	51.200000
898.702754	1122.327809	51.216667
898.228160	1118.366199	51.233333
897.592465	1115.376690	51.250000
897.278350	1111.370831	51.266667
896.803747	1107.422896	51.283333
896.007559	1104.497148	51.300000
895.853616	1100.906999	51.316667
895.218824	1096.570688	51.333333
894.743600	1093.549516	51.350000
894.429771	1089.117346	51.366667
893.794967	1084.797460	51.383333
892.998764	1081.894083	51.400000
892.845107	1077.877058	51.416667
891.889019	1074.130764	51.433333
891.734449	1071.476461	51.450000
890.938540	1068.135826	51.466667
890.462995	1065.593034	51.483333
890.309023	1062.046400	51.500000
889.673892	1058.214094	51.516667
889.359730	1054.280221	51.533333
888.885679	1049.508385	51.550000
888.090052	1045.745253	51.566667
887.936065	1042.220815	51.583333
887.301516	1037.520959	51.600000
886.665767	1034.611555	51.616667
886.352181	1029.817048	51.633333
885.716725	1026.470560	51.650000
885.402833	1022.132797	51.666667
884.767966	1017.907868	51.683333
883.972015	1014.628468	51.700000
883.335954	1012.184867	51.716667
882.860377	1009.690051	51.733333
882.544989	1007.585996	51.750000
882.230783	1003.716987	51.766667
881.434525	1000.895338	51.783333
881.119723	997.916254	51.800000
880.805213	994.499929	51.816667
880.170024	990.754843	51.833333
879.855510	987.346752	51.850000
879.220608	983.172400	51.866667
879.066867	979.281414	51.883333
878.432544	974.243878	51.900000
877.797630	970.088340	51.916667
877.483976	965.395582	51.933333
876.367012	962.284681	51.950000
876.212378	959.726127	51.966667
875.737936	955.538229	51.983333
875.262908	952.224476	52.000000
874.788168	948.481018	52.016667
873.992452	944.849889	52.033333
873.356060	942.900400	52.050000
873.040929	940.412627	52.066667
872.404824	938.034514	52.083333
872.411240	934.580476	52.100000
871.775998	930.914305	52.116667
871.301239	927.199292	52.133333
870.665991	923.542987	52.150000
870.351423	920.213380	52.166667
869.716456	916.137542	52.183333
869.080911	912.924327	52.200000
868.605849	909.661171	52.216667
868.452043	905.866825	52.233333
867.817347	901.385567	52.250000
867.503333	897.229861	52.266667
866.386314	894.200793	52.283333
865.749612	892.714720	52.300000
865.594937	890.217814	52.316667
865.119856	886.981884	52.333333
864.644490	884.173870	52.350000
864.490661	880.413733	52.366667
863.534398	876.928402	52.383333
863.219227	874.499621	52.400000
862.744699	870.438494	52.416667
862.108835	867.701959	52.433333
861.794787	863.597098	52.450000
860.998713	860.501342	52.466667
860.844862	856.773229	52.483333
860.048502	854.105301	52.500000
859.733879	850.859010	52.516667
859.419533	847.198016	52.533333
858.623726	843.704286	52.550000
858.309094	840.470570	52.566667
857.513281	836.986183	52.583333
857.037599	834.647961	52.600000
856.722960	831.425393	52.616667
855.926581	828.784935	52.633333
855.933188	825.046040	52.650000
855.137360	821.583067	52.666667
854.340696	819.367561	52.683333
854.186253	816.523463	52.700000
853.711390	812.964091	52.716667
853.236247	809.822413	52.733333
852.922139	805.805775	52.750000
852.286504	802.727112	52.766667
852.133427	797.844853	52.783333
851.177362	794.063604	52.800000
850.541168	791.819540	52.816667
850.226219	789.059319	52.833333
849.269048	786.928766	52.850000
849.114308	784.528593	52.866667
848.639141	781.422370	52.883333
848.002938	779.190446	52.900000
847.849012	775.574657	52.916667
846.892379	772.642862	52.933333
846.737629	770.256092	52.950000
845.941478	767.276733	52.966667
845.786997	764.489222	52.983333
845.312084	761.002974	53.000000
844.676411	757.980851	53.016667
844.361708	754.853637	53.033333
843.726571	751.031813	53.050000
843.251375	747.967821	53.066667
842.615691	744.962250	53.083333
842.140221	742.308304	53.100000
841.664749	739.657337	53.116667
841.350030	736.553344	53.133333
841.035846	732.651480	53.150000
840.240198	728.919442	53.166667
839.443743	726.392573	53.183333
839.128478	724.104230	53.200000
839.134987	720.511874	53.216667
838.179106	716.455707	53.233333
837.703882	713.435863	53.250000
836.746662	711.378577	53.266667
836.431121	709.501829	53.283333
836.115845	707.229854	53.300000
835.479329	705.465851	53.316667
835.485819	701.900567	53.333333
834.689873	698.613765	53.350000
834.053881	696.066872	53.366667
834.221114	692.065981	53.383333
833.104185	688.902949	53.400000
832.949909	685.809464	53.416667
832.475447	681.651229	53.433333
831.679219	678.786120	53.450000
831.364710	675.368809	53.466667
830.407989	672.566842	53.483333
830.413662	670.221129	53.500000
829.617947	666.590695	53.516667
828.981669	664.470237	53.533333
828.506138	661.907689	53.550000
827.869857	659.792011	53.566667
827.554288	657.957431	53.583333
827.079012	655.014274	53.600000
826.281980	653.348406	53.616667
826.608874	650.524406	53.633333
825.813136	646.926844	53.650000
825.177363	644.053182	53.666667
825.023307	640.632561	53.683333
824.066555	637.877120	53.700000
823.751747	634.905629	53.716667
823.437452	631.169174	53.733333
822.801923	627.932558	53.750000
822.326877	624.645823	53.766667
821.530597	621.856848	53.783333
821.376006	619.233871	53.800000
820.740720	615.633481	53.816667
819.944177	613.238013	53.833333
819.789580	610.625159	53.850000
818.672059	608.345904	53.866667
818.677180	606.824377	53.883333
818.201858	603.949562	53.900000
817.565792	601.513094	53.916667
817.411439	598.535256	53.933333
816.775876	595.348361	53.950000
815.979316	592.977287	53.966667
815.663963	590.821201	53.983333
814.867652	588.078595	54.000000
814.873269	585.817193	54.016667
814.398684	581.842509	54.033333
813.923591	578.626042	54.050000
813.288007	575.469715	54.066667
812.652170	572.692780	54.083333
812.176566	570.238522	54.100000
811.701210	567.413604	54.116667
811.064865	565.394216	54.133333
810.589255	562.948886	54.150000
809.792669	560.617152	54.166667
809.637780	558.439154	54.183333
809.322652	555.946990	54.200000
808.526060	553.623800	54.216667
808.371663	550.711468	54.233333
807.575316	548.024416	54.250000
807.260178	545.544946	54.266667
806.463578	543.234581	54.283333
805.826969	541.609904	54.300000
805.832800	539.027697	54.316667
805.357662	535.878238	54.333333
804.721541	533.524414	54.350000
804.406884	530.328229	54.366667
803.771250	527.247810	54.383333
803.456342	524.427511	54.400000
802.659969	521.777481	54.416667
802.023591	519.806399	54.433333
801.547700	517.782033	54.450000
801.072050	515.395289	54.466667
801.078105	512.480888	54.483333
800.442939	508.701907	54.500000
799.646308	506.437231	54.516667
799.170892	503.701936	54.533333
798.374015	501.805791	54.550000
798.218842	500.051409	54.566667
797.582933	497.380902	54.583333
797.106783	495.741603	54.600000
796.952573	492.550086	54.616667
796.156411	489.585844	54.633333
795.680738	487.234296	54.650000
795.044576	484.941346	54.666667
794.408172	483.010134	54.683333
794.253468	480.555796	54.700000
793.777788	478.215703	54.716667
793.302345	475.521088	54.733333
793.148352	472.005129	54.750000
792.191442	469.486269	54.766667
791.715991	466.804226	54.783333
791.079811	464.537220	54.800000
790.924854	462.461120	54.816667
790.449871	459.080057	54.833333
789.332224	456.990060	54.850000
789.016536	455.331805	54.866667
788.540598	453.377353	54.883333
788.386105	450.607497	54.900000
787.910872	447.600577	54.916667
787.114424	445.062055	54.933333
786.799436	442.360015	54.950000
786.163236	440.124476	54.966667
785.687756	437.485498	54.983333
785.211804	435.550680	55.000000
784.736319	432.918474	55.016667
784.260598	430.639413	55.033333
783.784875	428.363317	55.050000
783.309383	425.741750	55.066667
782.512681	423.583784	55.083333
782.036719	421.664623	55.100000
781.560987	419.400412	55.116667
781.245742	417.083251	55.133333
780.770007	414.824961	55.150000
780.294733	411.877858	55.166667
779.337299	410.139619	55.183333
779.021583	408.524934	55.200000
778.545609	406.622884	55.216667
778.069865	404.378603	55.233333
777.754606	402.081306	55.250000
777.279087	399.499426	55.266667
776.321874	397.432451	55.283333
776.166637	395.773867	55.300000
775.690653	393.886370	55.316667
775.375614	391.261053	55.333333
774.739597	388.751652	55.350000
774.103578	386.246136	55.366667
773.788074	384.313491	55.383333
772.991335	382.210987	55.400000
772.675829	380.283063	55.416667
772.200060	378.073947	55.433333
771.563803	375.923887	55.450000
771.088031	373.720709	55.466667
770.291055	371.970894	55.483333
769.654113	370.842992	55.500000
769.337918	369.941597	55.516667
769.182889	367.972079	55.533333
768.707110	365.779944	55.550000
768.392042	363.198066	55.566667
767.755995	360.732342	55.583333
767.279985	358.885597	55.600000
766.804422	356.370492	55.616667
766.328632	354.194010	55.633333
765.692800	351.408059	55.650000
765.216782	349.572216	55.666667
764.901697	347.015391	55.683333
764.265634	344.574857	55.700000
763.950543	342.025732	55.716667
762.993277	340.037438	55.733333
762.356540	338.603004	55.750000
761.880290	337.113846	55.766667
761.564748	335.238842	55.783333
760.928008	333.809296	55.800000
760.612241	332.268727	55.816667
760.296917	330.069436	55.833333
759.660615	327.985682	55.850000
758.863382	326.619762	55.866667
758.547611	325.086459	55.883333
758.392767	322.840995	55.900000
758.238361	319.942174	55.916667
757.442001	317.273551	55.933333
757.127539	313.786895	55.950000
756.170465	311.511903	55.966667
755.855121	309.341279	55.983333
755.058312	307.342752	56.000000
754.903452	305.121645	56.016667
754.267344	302.747974	56.033333
753.631016	300.702399	56.050000
752.833765	299.363996	56.066667
752.517976	297.857863	56.083333
751.559801	297.225769	56.100000
751.725257	295.875966	56.116667
750.928435	293.897065	56.133333
750.612426	292.719225	56.150000
749.975872	291.010738	56.166667
749.660077	289.513393	56.183333
749.344712	287.374466	56.200000
748.869072	284.973924	56.216667
748.232942	282.633731	56.233333
747.757297	280.240912	56.250000
747.442137	277.795437	56.266667
746.966487	275.410321	56.283333
746.169859	273.142124	56.300000
745.854478	271.026363	56.316667
745.378820	268.652346	56.333333
744.581759	267.029898	56.350000
743.945185	265.353095	56.366667
743.308184	264.311873	56.383333
742.670971	263.588180	56.400000
742.675920	262.322375	56.416667
742.039342	260.651795	56.433333
741.723737	258.870220	56.450000
741.408553	256.460418	56.466667
740.611693	254.538980	56.483333
740.456781	252.394047	56.500000
739.820194	250.735836	56.516667
739.505001	248.339505	56.533333
738.869040	245.747353	56.550000
737.911472	244.210828	56.566667
737.756132	242.705434	56.583333
737.119536	241.059613	56.600000
736.643427	239.359307	56.616667
736.327805	237.604494	56.633333
735.530717	236.021924	56.650000
735.215092	234.271461	56.666667
734.417793	233.003416	56.683333
734.262445	231.510064	56.700000
733.626047	229.569357	56.716667
733.149928	227.883948	56.733333
732.834503	225.835284	56.750000
732.197893	224.211328	56.766667
731.400793	222.646315	56.783333
731.084950	221.220849	56.800000
730.448130	219.910417	56.816667
730.292773	218.431205	56.833333
729.816849	216.453665	56.850000
729.180436	214.535867	56.866667
729.025485	212.450655	56.883333
728.389068	210.538776	56.900000
727.591956	208.991662	56.916667
727.276511	206.971677	56.933333
726.479397	205.429315	56.950000
725.842565	204.136226	56.966667
725.365813	203.395209	56.983333
725.210240	202.237527	57.000000
724.894788	200.228101	57.016667
724.097668	198.694887	57.033333
723.782009	196.993289	57.050000
723.145374	195.407594	57.066667
722.669225	193.767212	57.083333
722.193074	192.129006	57.100000
721.716720	190.793943	57.116667
721.240768	188.859125	57.133333
720.764613	187.227448	57.150000
720.288457	185.597948	57.166667
720.133676	183.257899	57.183333
719.176253	181.505253	57.200000
718.539403	180.238934	57.216667
717.902352	179.272532	57.233333
717.265301	178.307117	57.250000
716.949225	177.228785	57.266667
716.472860	175.910709	57.283333
716.317470	174.480225	57.300000
715.841501	172.571208	57.316667
715.044156	171.372223	57.333333
714.407299	170.117795	57.350000
714.091416	168.750919	57.366667
713.614846	167.738291	57.383333
713.459846	165.726288	57.400000
712.662694	164.240213	57.416667
712.347004	162.585296	57.433333
711.871022	160.695307	57.450000
711.234353	159.159137	57.466667
710.758171	157.568119	57.483333
709.960815	156.386539	57.500000
709.805214	155.271241	57.516667
709.168540	153.742724	57.533333
708.692352	152.159334	57.550000
708.055480	150.927105	57.566667
707.418411	149.988078	57.583333
707.102513	148.644447	57.600000
706.626126	147.359403	57.616667
706.310226	146.018786	57.633333
705.673348	144.793862	57.650000
705.197152	143.223186	57.666667
704.720955	141.654684	57.683333
704.084074	140.434931	57.700000
703.607486	139.448804	57.716667
703.452262	137.771503	57.733333
702.815765	135.979243	57.750000
702.178879	134.766174	57.766667
702.023650	133.095354	57.783333
701.065979	131.712441	57.800000
700.750067	130.390232	57.816667
700.113177	129.183853	57.833333
699.636582	128.208415	57.850000
699.160179	126.947608	57.866667
698.523286	125.745496	57.883333
698.207177	124.716283	57.900000
697.891450	123.117085	57.916667
697.254746	121.634441	57.933333
696.938825	120.324304	57.950000
696.462796	118.504079	57.966667
695.665599	117.085191	57.983333
695.189187	115.837704	58.000000
694.712963	114.308381	58.016667
694.075870	113.404508	58.033333
693.599455	112.161569	58.050000
692.962361	111.259899	58.066667
692.806920	109.905194	58.083333
692.170014	108.723749	58.100000
691.533106	107.543828	58.116667
691.216986	106.532270	58.133333
690.740565	105.297816	58.150000
689.943166	104.179430	58.166667
689.787531	103.113983	58.183333
688.829455	102.335920	58.200000
688.673819	101.272408	58.216667
688.036717	100.381735	58.233333
687.720779	99.097877	58.250000
687.083676	98.209403	58.266667
686.607435	96.706600	58.283333
686.291121	95.984671	58.300000
685.493900	94.599771	58.316667
685.017096	93.936807	58.333333
684.540664	92.718436	58.350000
684.063859	92.056939	58.366667
683.587240	91.118466	58.383333
683.110620	90.180966	58.400000
682.634185	88.967450	58.416667
682.157749	87.755447	58.433333
681.841800	86.487600	58.450000
681.204873	85.335981	58.466667
680.567946	84.185885	58.483333
679.930648	83.588355	58.500000
680.096161	82.153818	58.516667
679.138438	80.847479	58.533333
678.822299	79.863037	58.550000
678.345855	78.662538	58.566667
677.548250	77.852463	58.583333
677.392781	76.539893	58.600000
676.434686	75.789432	58.616667
676.279032	74.752908	58.633333
675.802584	73.559079	58.650000
675.326134	72.366762	58.666667
675.010172	71.118529	58.683333
674.212744	70.044098	58.700000
673.575621	69.185658	58.716667
673.259474	68.213314	58.733333
672.461862	67.414275	58.750000
672.306202	66.386422	58.766667
671.508588	65.589345	58.783333
671.513415	64.505961	58.800000
670.876470	63.382922	58.816667
669.918365	62.646500	58.833333
669.120567	62.123574	58.850000
668.643565	61.756113	58.866667
668.487540	61.273948	58.883333
668.331876	60.252861	58.900000
667.855414	59.078447	58.916667
667.539621	57.579157	58.933333
666.581512	56.849146	58.950000
666.265536	55.621774	58.966667
665.628223	55.047086	58.983333
664.991089	54.205024	59.000000
664.835240	53.459096	59.016667
664.519440	51.968858	59.033333
663.882483	50.862862	59.050000
663.406014	49.700858	59.066667
662.768876	48.864397	59.083333
662.292226	47.971378	59.100000
661.655087	47.136874	59.116667
660.696792	46.684274	59.133333
660.540940	45.944504	59.150000
660.224776	44.997350	59.166667
659.747945	44.373950	59.183333
659.271292	43.486048	59.200000
658.473661	42.714246	59.216667
658.478295	41.920166	59.233333
657.841328	40.828173	59.250000
657.204184	40.001735	59.266667
656.888016	39.061116	59.283333
656.090381	38.294214	59.300000
655.774036	37.618908	59.316667
655.136889	36.796137	59.333333
654.659877	36.442712	59.350000
654.183218	35.563817	59.366667
653.706558	34.685893	59.383333
653.229722	34.071291	59.400000
652.592572	33.252680	59.416667
651.634094	33.074189	59.433333
651.478058	32.607890	59.450000
650.840731	32.052935	59.466667
650.845359	31.268058	59.483333
650.529184	30.337632	59.500000
649.892031	29.523425	59.516667
649.254878	28.710197	59.533333
648.456886	28.476854	59.550000
647.819557	27.925591	59.566667
647.342542	27.577604	59.583333
647.026016	27.172225	59.600000
647.191303	26.073972	59.616667
646.233344	25.120445	59.633333
645.916990	24.456822	59.650000
645.279833	23.649715	59.666667
644.161036	23.275673	59.683333
643.844507	22.872862	59.700000
643.367490	22.527962	59.716667
643.050961	22.125643	59.733333
642.895094	21.407282	59.750000
642.257934	20.604105	59.766667
641.780916	20.260560	59.783333
641.304244	19.401174	59.800000
640.345932	18.973585	59.816667
640.350379	18.458100	59.833333
639.392067	18.031447	59.850000
639.236025	17.574256	59.866667
638.759350	16.718290	59.883333
638.121842	16.434914	59.900000
637.644994	15.837223	59.916667
637.168146	15.240083	59.933333
636.851615	14.842295	59.950000
636.695915	13.874327	59.966667
635.898088	13.394253	59.983333
635.421410	12.543404	60.000000
634.623583	12.064632	60.016667
634.146561	11.726522	60.033333
633.830199	11.075514	60.050000
633.353348	10.482777	60.066667
632.715837	10.203384	60.083333
632.399474	9.553838	60.100000
631.601474	9.332802	60.116667
631.445599	8.626437	60.133333
630.326621	8.521509	60.150000
630.170575	8.070397	60.166667
629.372574	7.850500	60.183333
629.377187	7.088036	60.200000
629.221140	6.637771	60.216667
628.262820	6.222706	60.233333
627.785796	5.888558	60.250000
627.308772	5.554659	60.266667
626.510939	5.083155	60.283333
626.515380	4.576596	60.300000
625.877867	4.301324	60.316667
625.400841	3.968540	60.333333
624.763327	3.693772	60.350000
624.286302	3.361487	60.366667
623.809276	3.029450	60.383333
623.171761	2.755435	60.400000
622.534247	2.481672	60.416667
622.057052	2.402661	60.433333
621.740514	2.013723	60.450000
621.423976	1.625030	60.466667
621.107438	1.236581	60.483333
620.469754	1.215796	60.500000
619.992727	0.885505	60.516667
619.355211	0.613249	60.533333
618.878015	0.535003	60.550000
618.561308	0.399033	60.566667
618.084112	0.320917	60.583333
617.767573	-0.066288	60.600000
617.130057	-0.337661	60.616667
616.652861	-0.415458	60.633333
616.015176	-0.435395	60.650000
615.698637	-0.821852	60.666667
615.381929	-0.957191	60.683333
614.904733	-1.034667	60.700000
614.267216	-1.305026	60.716667
613.950676	-1.690741	60.733333
613.312991	-1.710093	60.750000
612.835962	-2.037628	60.766667
612.679743	-2.230207	60.783333
612.363203	-2.615181	60.800000
611.725685	-2.884287	60.816667
611.248655	-3.210954	60.833333
610.771626	-3.537374	60.850000
610.294429	-3.613765	60.866667
609.817399	-3.939809	60.883333
609.340202	-4.016009	60.900000
608.702683	-4.283856	60.916667
608.386142	-4.667098	60.933333
607.748623	-4.934444	60.950000
607.271425	-5.010196	60.966667
606.633906	-5.277163	60.983333
605.996387	-5.543877	61.000000
605.679844	-5.926004	61.016667
605.202813	-6.250053	61.033333
604.886104	-6.383066	61.050000
604.569562	-6.764579	61.066667
604.092530	-7.088008	61.083333
603.294355	-7.047187	61.100000
602.657000	-7.560591	61.116667
602.019314	-7.577350	61.133333
601.381627	-7.594042	61.150000
600.744106	-7.858615	61.166667
600.267073	-8.180786	61.183333
600.111018	-8.618411	61.200000
599.312842	-8.576798	61.216667
598.996132	-8.708676	61.233333
598.037468	-8.609073	61.250000
597.560435	-8.930363	61.266667
596.762258	-8.888413	61.283333
596.124571	-8.904254	61.300000
595.647372	-8.977886	61.316667
595.170173	-9.051454	61.333333
594.371997	-9.009234	61.350000
593.252843	-8.851219	61.366667
592.454666	-8.808859	61.383333
591.656325	-8.519541	61.400000
591.178960	-8.345950	61.416667
590.541272	-8.361377	61.433333
590.384885	-8.303512	61.450000
589.586874	-8.507764	61.466667
588.948855	-8.029543	61.483333
588.150679	-7.986963	61.500000
587.512826	-7.755496	61.516667
587.195784	-7.393019	61.533333
587.039563	-7.581895	61.550000
586.401709	-7.350428	61.566667
585.763856	-7.118960	61.583333
585.126003	-6.887492	61.600000
584.809127	-6.771758	61.616667
584.010785	-6.482423	61.633333
583.694075	-6.613352	61.650000
583.377199	-6.497616	61.666667
582.899834	-6.324012	61.683333
582.582959	-6.208275	61.700000
582.266248	-6.339134	61.716667
581.788883	-6.165527	61.733333
581.311684	-6.238450	61.750000
580.834320	-6.064840	61.766667
580.517609	-6.195566	61.783333
580.200733	-6.079824	61.800000
579.884022	-6.210485	61.816667
579.567312	-6.341084	61.833333
578.929623	-6.355871	61.850000
578.291770	-6.124374	61.866667
577.654082	-6.139090	61.883333
576.695416	-6.037987	61.900000
576.057563	-5.806482	61.916667
575.419710	-5.574977	61.933333
574.300390	-5.169842	61.950000
574.304492	-5.169842	61.966667
573.827292	-5.242284	61.983333
573.670905	-5.184407	62.000000
572.551586	-4.779265	62.016667
571.753244	-4.489877	62.033333
571.436368	-4.374122	62.050000
570.638026	-4.084733	62.066667
571.605225	-4.677999	62.083333
571.769815	-4.735877	62.100000
571.453269	-5.111940	62.116667
570.012972	-4.591016	62.133333
566.807299	-3.433401	62.150000
566.811236	-3.187549	62.166667
567.617781	-3.476948	62.183333
569.066281	-3.997866	62.200000
570.033644	-4.836828	62.216667
567.951722	-4.575791	62.233333
566.350936	-3.996954	62.250000
563.947707	-3.128697	62.266667
563.149201	-2.593624	62.283333
564.918678	-3.230336	62.300000
564.601967	-3.360232	62.316667
566.050632	-4.126798	62.333333
565.573596	-4.444185	62.350000
561.565644	-3.242422	62.366667
560.446160	-2.591806	62.383333
559.005863	-2.070822	62.400000
560.614688	-2.404231	62.416667
562.705307	-3.402223	62.433333
562.067618	-3.416086	62.450000
561.751071	-3.790951	62.466667
557.582630	-2.531019	62.483333
557.907545	-2.401592	62.500000
557.911646	-2.401592	62.516667
556.471350	-1.880581	62.533333
560.006367	-3.399383	62.550000
556.961348	-2.544598	62.566667
556.805125	-2.731790	62.583333
555.846294	-2.384432	62.600000
554.245508	-1.805500	62.616667
554.570751	-2.166298	62.633333
554.093387	-1.992615	62.650000
554.579119	-2.411250	62.666667
554.904362	-2.771936	62.683333
552.019666	-1.729805	62.700000
552.665887	-2.206213	62.716667
550.423146	-1.395652	62.733333
551.711158	-1.858830	62.750000
552.036565	-2.464086	62.766667
549.954313	-1.711396	62.783333
550.921347	-2.058792	62.800000
549.802355	-2.142696	62.816667
548.201569	-1.563683	62.833333
550.131700	-2.503011	62.850000
546.284072	-1.113357	62.866667
547.572083	-1.576575	62.883333
546.613416	-1.473594	62.900000
546.296540	-1.357787	62.916667
546.621783	-1.717968	62.933333
545.341975	-1.254733	62.950000
544.543796	-1.209513	62.966667
545.350505	-1.743288	62.983333
542.786787	-0.816786	63.000000
545.840338	-2.161199	63.016667
542.153363	-1.073441	63.033333
541.996976	-1.015533	63.050000
541.519774	-1.085856	63.066667
541.202899	-0.970037	63.083333
542.812051	-1.793127	63.100000
540.248496	-1.110484	63.116667
540.252598	-1.110484	63.133333
539.935885	-1.238523	63.150000
538.656240	-1.019018	63.166667
538.981483	-1.378583	63.183333
536.738742	-0.567781	63.200000
537.063821	-0.683610	63.216667
538.031018	-1.274770	63.233333
536.590885	-0.997137	63.250000
537.558082	-1.588187	63.266667
535.957459	-1.252498	63.283333
534.838303	-1.090487	63.300000
534.842404	-1.090487	63.316667
531.636731	0.067903	63.333333
533.727023	-0.441640	63.350000
533.731451	-0.928404	63.366667
531.970339	-0.534561	63.383333
534.381935	-1.646621	63.400000
531.657891	-0.905104	63.416667
531.501667	-1.090284	63.433333
530.542999	-0.985776	63.450000
529.102539	-0.221417	63.466667
529.267292	-0.522372	63.483333
528.468950	-0.232745	63.500000
528.152074	-0.116894	63.516667
529.761389	-1.182039	63.533333
527.839788	-0.729756	63.550000
529.930406	-1.725623	63.566667
524.638541	-0.056662	63.583333
525.766064	-0.462175	63.600000
524.325767	0.059199	63.616667
524.008891	0.175060	63.633333
525.618043	-0.646900	63.650000
526.424751	-1.179158	63.666667
523.219240	-0.263033	63.683333
524.828391	-1.084840	63.700000
521.301903	-0.052677	63.716667
522.268937	-0.400290	63.733333
520.347336	0.052607	63.750000
520.511764	0.237001	63.766667
520.997494	-0.179139	63.783333
521.483224	-0.595225	63.800000
520.043089	-0.315997	63.816667
520.208004	-0.858179	63.833333
517.483797	0.126807	63.850000
518.932460	-0.636682	63.866667
516.047763	0.406263	63.883333
517.656753	-0.173152	63.900000
517.340201	-0.541124	63.916667
515.578926	0.096253	63.933333
516.867100	-0.609131	63.950000
515.105987	-0.213510	63.966667
514.307645	0.076217	63.983333
514.953864	-0.397272	64.000000
512.711446	-0.069234	64.016667
514.159947	-0.590769	64.033333
512.880300	-0.368700	64.050000
512.081958	-0.078954	64.066667
511.925732	-0.262458	64.083333
509.843480	0.490897	64.100000
511.934097	-0.503853	64.116667
511.456894	-0.571332	64.133333
510.016759	-0.291027	64.150000
509.218578	-0.242462	64.166667
507.457465	0.153903	64.183333
508.103360	0.163218	64.200000
508.107785	-0.318995	64.216667
506.827976	0.144655	64.233333
508.276638	-0.617970	64.250000
506.194547	-0.105475	64.266667
505.556855	-0.114527	64.283333
504.919002	0.117310	64.300000
503.960332	0.224248	64.316667
503.643456	0.340169	64.333333
503.808208	0.041452	64.350000
504.133287	-0.074471	64.366667
504.940155	-0.845627	64.383333
501.413665	0.188996	64.400000
502.059882	-0.283372	64.416667
500.298608	0.354245	64.433333
500.142220	0.412210	64.450000
500.948927	-0.118061	64.466667
499.508791	0.163256	64.483333
500.315497	-0.366903	64.500000
498.554383	0.030491	64.516667
497.916530	0.262367	64.533333
498.402259	-0.151735	64.550000
496.159678	0.419724	64.566667
496.645246	0.245811	64.583333
496.970486	-0.110200	64.600000
495.690838	0.113575	64.616667
495.534612	-0.068394	64.633333
495.057247	0.105528	64.650000
495.061670	-0.374174	64.666667
494.103000	-0.266075	64.683333
492.020747	0.487625	64.700000
492.345826	0.371671	64.716667
491.708133	0.363895	64.733333
492.514840	-0.165624	64.750000
493.000568	-0.579134	64.766667
491.079125	-0.362324	64.783333
490.601760	-0.188379	64.800000
488.680157	0.268032	64.816667
488.363281	0.383997	64.833333
488.206894	0.441980	64.850000
488.050507	0.499963	64.866667
488.857212	-0.029264	64.883333
489.022123	-0.565700	64.900000
486.779542	0.006975	64.916667
486.462826	-0.116115	64.933333
484.862040	0.463762	64.950000
484.705813	0.282755	64.966667
483.426004	0.746665	64.983333
484.393039	0.398732	65.000000
485.841699	-0.362108	65.016667
484.401722	-0.317892	65.033333
483.282562	-0.150701	65.050000
481.681776	0.429224	65.066667
480.723105	0.538503	65.083333
480.727206	0.538503	65.100000
480.891797	0.480510	65.116667
480.414592	0.415875	65.133333
481.060808	-0.054664	65.150000
480.102297	-0.183624	65.166667
478.983136	-0.016014	65.183333
477.382350	0.563970	65.200000
477.225963	0.621969	65.216667
477.872179	0.151669	65.233333
477.394974	0.087422	65.250000
476.115325	0.313247	65.266667
476.440564	-0.040877	65.283333
474.518959	0.417100	65.300000
475.165016	0.185087	65.316667
473.885367	0.411125	65.333333
474.692072	-0.116831	65.350000
473.091445	0.225355	65.366667
472.774728	0.103562	65.383333
471.334430	0.625627	65.400000
472.301624	0.039840	65.416667
470.861326	0.561913	65.433333
471.989009	-0.081827	65.450000
470.067404	0.376670	65.466667
471.516064	-0.382983	65.483333
469.273482	0.191681	65.500000
467.993832	0.418353	65.516667
466.874512	0.824445	65.533333
468.483501	0.244314	65.550000
467.524829	0.355030	65.566667
468.652512	-0.288377	65.583333
467.533509	-0.356704	65.600000
466.735326	-0.303742	65.616667
464.653232	0.213438	65.633333
463.212934	0.735608	65.650000
463.698502	0.561551	65.666667
463.542115	0.619570	65.683333
463.385886	0.440604	65.700000
464.995035	-0.376529	65.716667
462.752610	-0.037907	65.733333
463.398667	-0.269998	65.750000
460.674776	0.242979	65.766667
459.555298	0.885820	65.783333
459.078091	0.823225	65.800000
459.242523	1.001867	65.816667
459.567761	0.649151	65.833333
460.695443	0.006363	65.850000
460.218395	-0.292610	65.866667
459.580858	-0.533307	65.883333
457.177786	0.100832	65.900000
455.737488	0.623105	65.916667
455.260123	0.797197	65.933333
455.103736	0.855227	65.950000
456.391906	0.154746	65.966667
455.914700	0.092664	65.983333
455.758629	-0.321477	66.000000
454.799956	-0.209265	66.016667
452.878350	0.251234	66.033333
452.721962	0.309270	66.050000
451.121334	0.653778	66.066667
450.964947	0.711815	66.083333
451.129537	0.653778	66.100000
450.491841	0.650135	66.116667
451.940500	-0.107948	66.133333
451.623940	-0.463172	66.150000
450.023311	-0.118316	66.166667
449.225126	-0.063597	66.183333
446.982384	0.749004	66.200000
447.146975	0.690961	66.216667
447.151076	0.690961	66.233333
446.834358	0.571630	66.250000
448.443506	-0.244176	66.266667
446.682546	-0.076222	66.283333
445.884361	-0.021164	66.300000
443.802265	0.498350	66.316667
443.645720	0.791503	66.333333
444.612912	0.208107	66.350000
443.333418	0.202468	66.366667
442.374587	0.550771	66.383333
443.020644	0.318569	66.400000
441.580503	0.606109	66.416667
442.226717	0.139042	66.433333
440.626088	0.484774	66.450000
440.148880	0.424203	66.466667
440.313628	0.131476	66.483333
439.354954	0.245199	66.500000
439.359213	0.010649	66.516667
437.919072	0.298681	66.533333
436.960240	0.647031	66.550000
437.927432	0.064257	66.566667
435.845179	0.819027	66.583333
437.454169	0.238435	66.600000
436.174674	0.234257	66.616667
435.215999	0.348392	66.633333
435.380747	0.056156	66.650000
433.619471	0.694849	66.666667
433.784061	0.636786	66.683333
434.269786	0.228488	66.700000
431.866712	0.865412	66.716667
434.117814	-0.181487	66.733333
430.270341	0.978184	66.750000
431.718842	0.455583	66.766667
432.044078	0.105588	66.783333
430.603936	0.394405	66.800000
431.089818	-0.247217	66.816667
428.847232	0.332164	66.833333
428.209222	0.798054	66.850000
429.016080	0.040543	66.866667
426.933671	1.029024	66.883333
428.061507	0.155494	66.900000
427.102676	0.503934	66.916667
427.909534	-0.253224	66.933333
426.950859	-0.138074	66.950000
424.547784	0.499841	66.966667
423.749442	0.790228	66.983333
424.716476	0.441764	67.000000
423.276178	0.964460	67.016667
424.885481	-0.082599	67.033333
422.482406	0.555548	67.050000
423.931063	-0.200164	67.066667
422.490921	0.089642	67.083333
420.729645	0.728544	67.100000
421.054881	0.379524	67.116667
419.614738	0.669482	67.133333
419.297862	0.785650	67.150000
420.586031	0.088242	67.166667
418.182955	0.726852	67.183333
420.113079	-0.202793	67.200000
417.870493	0.377877	67.216667
417.393283	0.319657	67.233333
417.237052	0.145323	67.250000
415.154798	0.900488	67.266667
415.640367	0.726219	67.283333
414.842180	0.784318	67.300000
414.685792	0.842408	67.316667
416.294938	0.029203	67.333333
414.212996	0.319993	67.350000
415.019697	-0.202590	67.366667
412.937754	0.088604	67.383333
411.176323	0.959639	67.400000
411.341069	0.669566	67.416667
410.542726	0.960048	67.433333
411.830894	0.263356	67.450000
411.674662	0.089591	67.466667
410.234675	0.148944	67.483333
410.238776	0.148944	67.500000
408.798789	0.208564	67.516667
408.321424	0.382870	67.533333
408.165191	0.209424	67.550000
405.601471	1.139070	67.566667
407.852417	0.325630	67.583333
405.770318	0.849492	67.600000
406.255887	0.675180	67.616667
406.420787	0.154295	67.633333
405.943577	0.097312	67.650000
405.787500	-0.307003	67.666667
404.026379	0.101077	67.683333
401.623147	0.972718	67.700000
402.269204	0.740280	67.716667
401.149884	1.147047	67.733333
404.203274	0.042967	67.750000
402.442307	0.220140	67.766667
401.804608	0.221662	67.783333
401.809019	-0.240009	67.800000
399.566431	0.342853	67.816667
398.607599	0.691543	67.833333
397.969746	0.924004	67.850000
397.331892	1.156464	67.866667
400.064459	-0.062170	67.883333
398.303337	0.346495	67.900000
397.826281	0.059808	67.916667
396.546626	0.294335	67.933333
395.427460	0.470815	67.950000
395.431561	0.470815	67.966667
394.793862	0.473001	67.983333
393.674696	0.649622	68.000000
394.160418	0.245079	68.016667
393.041097	0.651944	68.033333
394.008287	0.073088	68.050000
392.407653	0.424284	68.066667
391.288487	0.601180	68.083333
392.255522	0.252422	68.100000
390.173576	0.548288	68.116667
390.498655	0.432032	68.133333
390.342422	0.260360	68.150000
388.741635	0.841651	68.166667
389.227357	0.437528	68.183333
387.787213	0.731030	68.200000
388.272935	0.327024	68.216667
388.277190	0.097470	68.233333
387.158023	0.274911	68.250000
385.878368	0.510558	68.266667
384.598558	0.975636	68.283333
385.244615	0.743097	68.300000
386.051161	0.452424	68.316667
385.253126	0.284435	68.333333
384.936557	-0.057715	68.350000
383.175434	0.352693	68.366667
382.858558	0.468972	68.383333
382.381346	0.414339	68.400000
380.780712	0.766760	68.416667
381.266281	0.592336	68.433333
381.591513	0.247125	68.450000
380.472346	0.425257	68.466667
379.995134	0.370884	68.483333
378.875814	0.777892	68.500000
378.719580	0.607300	68.516667
378.242368	0.553060	68.533333
378.246469	0.553060	68.550000
377.448433	0.386626	68.566667
376.810732	0.390726	68.583333
375.851900	0.739618	68.600000
376.658599	0.220444	68.616667
375.218454	0.515426	68.633333
375.864664	0.054516	68.650000
373.622074	0.640398	68.666667
373.786664	0.582246	68.683333
373.148810	0.814855	68.700000
373.634532	0.412219	68.716667
372.836494	0.246814	68.733333
371.235860	0.600376	68.750000
371.400450	0.542220	68.766667
370.762749	0.546917	68.783333
369.482939	1.012173	68.800000
369.968660	0.609837	68.816667
370.293892	0.265714	68.833333
369.816680	0.212444	68.850000
369.018489	0.275560	68.866667
367.578496	0.343833	68.883333
366.619664	0.692808	68.900000
366.944896	0.348988	68.916667
365.504597	0.872459	68.933333
366.311144	0.581642	68.950000
366.315398	0.354209	68.966667
365.356870	0.248517	68.983333
365.040146	0.137600	69.000000
363.920978	0.317585	69.016667
362.320190	0.899266	69.033333
363.126889	0.381304	69.050000
361.686742	0.677771	69.066667
362.493288	0.386921	69.083333
361.374120	0.567117	69.100000
361.378221	0.567117	69.116667
361.703605	-0.003040	69.133333
360.103121	0.125123	69.150000
359.625908	0.072956	69.166667
358.025120	0.654710	69.183333
358.029374	0.428087	69.200000
357.391520	0.660793	69.216667
356.753666	0.893498	69.233333
357.399875	0.434232	69.250000
357.885595	0.033196	69.266667
355.803644	0.336702	69.283333
355.486768	0.453062	69.300000
354.688576	0.517651	69.316667
353.569407	0.698672	69.333333
354.536442	0.349581	69.350000
353.417273	0.530668	69.366667
353.421526	0.304540	69.383333
352.141868	0.543948	69.400000
351.504165	0.550687	69.416667
351.668756	0.492502	69.433333
350.228608	0.790238	69.450000
351.356284	0.157052	69.466667
350.397603	0.280359	69.483333
350.080878	0.170979	69.500000
349.282837	0.010596	69.516667
347.521561	0.650697	69.533333
347.365174	0.708888	69.550000
347.529915	0.425131	69.566667
346.410594	0.832475	69.583333
347.859247	0.083238	69.600000
346.098273	0.272536	69.616667
345.300081	0.338190	69.633333
344.983355	0.229322	69.650000
343.543057	0.753091	69.666667
344.189265	0.295109	69.683333
343.391073	0.360964	69.700000
342.913708	0.535559	69.716667
342.597133	0.201875	69.733333
340.675367	0.900278	69.750000
342.123869	0.376476	69.766667
341.165188	0.500733	69.783333
340.687973	0.450453	69.800000
340.531737	0.283832	69.816667
339.091589	0.582902	69.833333
338.453885	0.591023	69.850000
338.618626	0.308182	69.866667
336.857349	0.948444	69.883333
339.268935	-0.149222	69.900000
336.705365	0.557574	69.916667
337.512061	0.042083	69.933333
336.071913	0.341570	69.950000
334.150147	1.040082	69.966667
334.635866	0.641133	69.983333
334.318989	0.757553	70.000000
334.965197	0.300448	70.016667
334.488132	0.026734	70.033333
331.924561	0.734070	70.050000
333.052085	0.326573	70.066667
331.451447	0.684701	70.083333
331.295210	0.518966	70.100000
330.497017	0.586157	70.116667
330.180141	0.702590	70.133333
330.665859	0.304110	70.150000
330.028155	0.313213	70.166667
328.588006	0.613477	70.183333
329.234213	0.156954	70.200000
326.349664	0.981347	70.216667
328.440121	0.224473	70.233333
327.160461	0.466724	70.250000
325.720312	0.767272	70.266667
325.885052	0.485657	70.283333
324.926220	0.835000	70.300000
325.251449	0.495221	70.316667
325.255701	0.271950	70.333333
323.334084	0.747455	70.350000
324.301269	0.174946	70.366667
322.058675	0.767052	70.383333
322.383754	0.650595	70.400000
322.227517	0.485803	70.416667
321.268684	0.835179	70.433333
322.556996	-0.076523	70.450000
319.993424	0.632341	70.466667
319.997675	0.409567	70.483333
320.001926	0.186852	70.500000
317.759182	1.002125	70.516667
320.010278	-0.035804	70.533333
317.928172	0.498660	70.550000
317.290318	0.731602	70.566667
317.776185	0.111901	70.583333
315.372952	0.985461	70.600000
316.500625	0.355397	70.616667
315.541942	0.482488	70.633333
315.225215	0.376688	70.650000
314.908487	0.270951	70.666667
312.986722	0.969842	70.683333
312.669994	0.864178	70.700000
313.316052	0.631210	70.716667
312.357368	0.758575	70.733333
313.966508	-0.045889	70.750000
311.724062	0.325649	70.766667
311.888801	0.045555	70.783333
310.127673	0.464483	70.800000
308.526884	1.046956	70.816667
308.691475	0.988709	70.833333
308.695725	0.766994	70.850000
309.020805	0.650498	70.866667
311.111708	-0.771558	70.883333
306.782608	0.801213	70.900000
307.749940	0.008817	70.916667
305.025877	0.777769	70.933333
305.671787	0.766101	70.950000
305.034081	0.777769	70.966667
304.556715	0.952529	70.983333
306.326344	0.090449	71.000000
305.367808	-0.002420	71.016667
302.964723	0.650326	71.033333
304.413374	-0.095033	71.050000
300.565888	1.082192	71.066667
302.977324	0.208309	71.083333
300.895217	0.744765	71.100000
300.578341	0.861284	71.116667
300.903568	0.523914	71.133333
299.944884	0.652691	71.150000
299.949134	0.431962	71.166667
299.953531	-0.009319	71.183333
297.229320	0.981173	71.200000
298.998948	0.119719	71.216667
297.077330	0.598422	71.233333
296.278986	0.889753	71.250000
296.283236	0.669337	71.266667
295.163767	1.297616	71.283333
297.415009	0.041106	71.300000
294.690946	0.811369	71.316667
294.855684	0.532869	71.333333
295.662526	-0.198776	71.350000
292.777973	0.630064	71.366667
292.621733	0.468351	71.383333
291.662901	0.817990	71.400000
291.185535	0.992810	71.416667
292.794674	0.190151	71.433333
290.712566	0.727856	71.450000
292.482194	-0.132977	71.466667
290.400380	-0.034432	71.483333
288.478614	0.664910	71.500000
288.643205	0.606632	71.516667
288.165987	0.561916	71.533333
288.651702	0.167584	71.550000
288.655951	-0.051852	71.566667
285.129442	1.010975	71.583333
285.935988	0.719564	71.600000
285.137645	1.010975	71.616667
286.746783	0.208845	71.633333
286.751179	-0.229596	71.650000
284.829559	0.250698	71.666667
284.191852	0.264780	71.683333
283.072677	0.453789	71.700000
281.311400	1.094951	71.716667
281.957457	0.861801	71.733333
281.480092	1.036664	71.750000
283.731186	0.001700	71.766667
282.451816	-0.188444	71.783333
280.690685	0.234066	71.800000
279.892488	0.306898	71.816667
277.168277	1.297874	71.833333
278.616633	0.991859	71.850000
278.620881	0.773239	71.866667
278.304151	0.671265	71.883333
279.752946	-0.290336	71.900000
277.670984	0.030800	71.916667
276.070195	0.613771	71.933333
274.951020	0.803602	71.950000
273.831552	1.429931	71.966667
276.082646	0.395516	71.983333
274.642493	0.702010	72.000000
275.128354	0.090907	72.016667
274.009325	0.063051	72.033333
273.050492	0.412865	72.050000
272.091806	0.544798	72.066667
271.293608	0.618496	72.083333
270.816097	1.011225	72.100000
271.783424	0.225820	72.116667
270.022293	0.649481	72.133333
270.989474	0.082004	72.150000
269.388832	0.447497	72.166667
268.109167	0.696450	72.183333
268.434247	0.579833	72.200000
267.475560	0.712237	72.216667
266.837851	0.728090	72.233333
268.286354	0.203298	72.250000
266.525368	0.410121	72.266667
267.171571	-0.040338	72.283333
264.126527	0.850471	72.300000
264.451461	0.950981	72.316667
265.418642	0.383961	72.333333
263.978488	0.691709	72.350000
263.982735	0.474691	72.366667
262.863559	0.665946	72.383333
262.225850	0.682321	72.400000
261.909119	0.582124	72.416667
261.431898	0.540309	72.433333
261.596634	0.265277	72.450000
260.637947	0.398548	72.466667
259.518625	0.806794	72.483333
259.683361	0.531888	72.500000
258.243207	0.840265	72.516667
257.765986	0.798775	72.533333
257.288621	0.973746	72.550000
258.897758	0.174106	72.566667
258.420537	0.132735	72.583333
257.622483	-0.008143	72.600000
254.737928	0.825593	72.616667
255.063007	0.708938	72.633333
253.783197	1.175561	72.650000
255.392333	0.376189	72.666667
253.631200	0.801779	72.683333
254.437892	0.294160	72.700000
253.639838	0.154053	72.716667
252.360172	0.404926	72.733333
251.240995	0.597537	72.750000
251.566074	0.480869	72.766667
249.804797	1.122543	72.783333
251.574422	0.265206	72.800000
248.850355	1.041308	72.816667
250.138368	0.574622	72.833333
249.982270	0.201941	72.850000
249.505049	0.161536	72.866667
248.065038	0.255935	72.883333
246.945860	0.449086	72.900000
245.987028	0.799131	72.916667
246.312251	0.467283	72.933333
245.353419	0.817333	72.950000
245.839132	0.427202	72.966667
245.522399	0.328842	72.983333
245.366156	0.172199	73.000000
244.086633	0.209171	73.016667
242.967312	0.617593	73.033333
241.847990	1.026016	73.050000
242.494048	0.792632	73.066667
241.856481	0.596491	73.083333
242.342194	0.206770	73.100000
240.581060	0.633996	73.116667
240.585161	0.633996	73.133333
241.712974	-0.203506	73.150000
238.667784	0.905168	73.166667
239.313985	0.457336	73.183333
237.873829	0.768144	73.200000
238.199052	0.437134	73.216667
237.882319	0.339598	73.233333
236.281531	0.923145	73.250000
236.446265	0.650613	73.266667
236.771631	0.105718	73.283333
235.010497	0.533654	73.300000
235.817044	0.241863	73.316667
233.574442	0.844949	73.333333
234.381132	0.339280	73.350000
233.101321	0.806159	73.366667
233.266055	0.533989	73.383333
233.430932	0.048183	73.400000
231.830287	0.418181	73.416667
230.871454	0.768361	73.433333
231.036188	0.496434	73.450000
229.435542	0.866580	73.466667
230.723556	0.399659	73.483333
228.801932	0.886605	73.500000
229.608622	0.381394	73.516667
228.970910	0.401543	73.533333
227.370264	0.771968	73.550000
227.213877	0.830336	73.566667
227.699731	0.228899	73.583333
225.777964	0.929342	73.600000
226.745143	0.366047	73.616667
224.502541	0.970240	73.633333
225.630066	0.561636	73.650000
224.511029	0.544410	73.666667
224.033664	0.719531	73.683333
224.840496	0.002064	73.700000
222.597893	0.606619	73.716667
221.960038	0.840124	73.733333
221.322326	0.860994	73.750000
220.523840	1.365511	73.766667
222.454095	0.239772	73.783333
221.335058	0.223440	73.800000
221.018324	0.127800	73.816667
220.220265	-0.004912	73.833333
217.335564	1.045969	73.850000
218.623578	0.578910	73.866667
217.664745	0.929204	73.883333
216.866543	1.008914	73.900000
218.315189	0.271314	73.916667
216.393706	0.547816	73.933333
217.360884	-0.014469	73.950000
215.920868	0.087259	73.966667
214.480710	0.400973	73.983333
214.163833	0.517751	74.000000
212.242066	1.218421	74.016667
213.851058	0.634529	74.033333
213.534324	0.539591	74.050000
212.254655	0.795060	74.066667
214.024419	-0.270384	74.083333
211.621468	0.182616	74.100000
210.823125	0.474587	74.116667
210.185553	0.285526	74.133333
207.621547	1.642472	74.150000
210.514593	0.380026	74.166667
209.234924	0.635902	74.183333
210.041612	0.132692	74.200000
209.404040	-0.055999	74.216667
206.680111	0.514758	74.233333
207.486658	0.222758	74.250000
205.725521	0.654244	74.266667
204.927177	0.946249	74.283333
205.733865	0.443387	74.300000
204.774891	1.004650	74.316667
206.544655	-0.059424	74.333333
204.302192	0.336807	74.350000
202.862033	0.651839	74.366667
203.187254	0.324477	74.383333
200.944509	1.142163	74.400000
202.072034	0.733320	74.416667
201.915787	0.581240	74.433333
201.117584	0.662851	74.450000
202.405881	-0.225095	74.466667
199.360971	0.464265	74.483333
199.365073	0.464265	74.500000
199.208826	0.312556	74.516667
197.126570	1.071912	74.533333
199.217170	0.102493	74.550000
197.135055	0.651867	74.566667
196.497341	0.675590	74.583333
197.625006	0.056810	74.600000
195.221772	0.933041	74.616667
196.991534	-0.129104	74.633333
194.267462	0.654300	74.650000
193.950586	0.771136	74.666667
194.436295	0.386254	74.683333
192.033060	1.262536	74.700000
193.802542	0.619929	74.716667
193.004479	0.492956	74.733333
192.687883	0.190968	74.750000
193.173592	-0.193628	74.766667
189.647074	0.882425	74.783333
190.453621	0.590305	74.800000
188.852972	0.965354	74.816667
188.696444	1.232968	74.833333
190.145088	0.497956	74.850000
188.865557	0.547149	74.866667
189.030288	0.279707	74.883333
188.392713	0.095566	74.900000
186.471085	0.587885	74.916667
186.475187	0.587885	74.933333
184.393070	1.138714	74.950000
184.878499	1.172183	74.966667
186.166793	0.287269	74.983333
184.245166	0.779806	75.000000
185.854298	-0.013106	75.016667
183.611832	0.387975	75.033333
182.652999	0.738583	75.050000
183.138707	0.354878	75.066667
180.896101	0.964646	75.083333
182.505233	0.172001	75.100000
181.225562	0.431284	75.116667
180.266729	0.781913	75.133333
180.752577	0.190348	75.150000
178.349342	1.066945	75.166667
179.797985	0.332953	75.183333
179.160409	0.150832	75.200000
178.041086	0.559928	75.216667
178.526795	0.176751	75.233333
176.284188	0.787174	75.250000
176.448779	0.728730	75.266667
175.971552	0.696341	75.283333
174.691741	1.163900	75.300000
176.782340	0.196450	75.316667
175.181829	0.365765	75.333333
174.383624	0.450523	75.350000
173.745908	0.476898	75.366667
172.305747	0.795588	75.383333
172.791455	0.412943	75.400000
171.672133	0.822097	75.416667
171.515884	0.673318	75.433333
172.001592	0.290789	75.450000
169.759123	0.694970	75.466667
170.886649	0.285793	75.483333
170.409422	0.254163	75.500000
168.327165	1.014076	75.516667
169.133989	0.308008	75.533333
167.212222	1.009486	75.550000
168.660864	0.276571	75.566667
167.060213	0.654404	75.583333
165.940891	1.063611	75.600000
166.747715	0.358018	75.616667
165.307553	0.677601	75.633333
165.953749	0.237258	75.650000
165.316033	0.264664	75.666667
162.912936	0.935230	75.683333
163.238016	0.818304	75.700000
162.118694	1.227546	75.716667
163.567335	0.495065	75.733333
162.929757	0.316476	75.750000
162.131551	0.402673	75.766667
161.814951	0.107523	75.783333
160.214299	0.486258	75.800000
159.255466	0.837072	75.816667
159.901662	0.397310	75.833333
157.979894	1.098948	75.850000
159.749514	0.249954	75.866667
158.790957	0.189309	75.883333
157.350656	0.715559	75.900000
157.996852	0.276028	75.916667
156.396338	0.449666	75.933333
156.079599	0.361158	75.950000
156.083838	0.155759	75.966667
153.359625	1.149858	75.983333
154.647639	0.682046	76.000000
154.170411	0.652145	76.016667
154.495491	0.535190	76.033333
154.820846	0.007744	76.050000
153.220331	0.182289	76.066667
152.582614	0.211180	76.083333
149.698048	1.058886	76.100000
150.183343	1.293418	76.116667
150.990027	0.795993	76.133333
150.833777	0.649511	76.150000
151.159132	0.122792	76.166667
150.200573	0.064184	76.183333
148.439431	0.502864	76.200000
147.801713	0.532211	76.216667
146.842880	0.883134	76.233333
146.847119	0.678600	76.250000
146.209401	0.708079	76.266667
146.053150	0.562154	76.283333
146.057389	0.357799	76.300000
145.259182	0.445958	76.316667
143.979370	0.913888	76.333333
145.428148	-0.020945	76.350000
143.827495	0.359873	76.366667
143.831870	-0.048172	76.383333
140.947167	1.004743	76.400000
141.753714	0.712266	76.416667
140.955370	1.004743	76.433333
142.083032	0.391349	76.450000
141.284962	0.276161	76.466667
141.610314	-0.248273	76.483333
139.528194	0.308597	76.500000
139.532432	0.105034	76.516667
136.326751	1.275054	76.533333
138.096096	0.835098	76.550000
137.939982	0.486547	76.566667
137.783730	0.341612	76.583333
137.948457	0.079729	76.600000
137.150386	-0.034330	76.616667
135.068401	0.319914	76.633333
134.269921	0.815575	76.650000
132.990109	1.283623	76.666667
134.278124	0.815575	76.683333
134.122008	0.467886	76.700000
134.286735	0.206367	76.716667
133.488663	0.093070	76.733333
132.850944	0.124281	76.750000
131.089801	0.565138	76.766667
130.130968	0.916208	76.783333
129.011645	1.325789	76.800000
130.299796	0.654997	76.816667
130.464522	0.393843	76.833333
130.147781	0.308288	76.850000
131.115089	-0.447793	76.866667
127.749190	0.376304	76.883333
127.111471	0.408099	76.900000
125.029078	1.371099	76.916667
126.477446	1.046772	76.933333
126.963286	0.466617	76.950000
126.807170	0.120764	76.966667
126.811407	-0.081333	76.983333
125.050398	0.158389	77.000000
123.128630	0.860655	77.016667
123.293356	0.600227	77.033333
122.013545	1.068411	77.050000
123.622673	0.281333	77.066667
122.503621	0.287489	77.083333
121.705412	0.378452	77.100000
121.870138	0.118320	77.116667
120.269483	0.502050	77.133333
119.310649	0.853217	77.150000
120.277821	0.300568	77.166667
118.356188	0.801498	77.183333
119.644337	0.131901	77.200000
117.883193	0.574439	77.216667
117.726806	0.632970	77.233333
117.410199	0.347623	77.250000
115.970033	0.673307	77.266667
115.813645	0.731841	77.283333
115.978505	0.271263	77.300000
114.859183	0.681008	77.316667
115.665999	-0.013475	77.333333
113.262898	0.663770	77.350000
113.748467	0.488158	77.366667
113.110747	0.521562	77.383333
112.472892	0.755715	77.400000
112.958730	0.178786	77.416667
110.716117	0.797786	77.433333
111.683288	0.246037	77.450000
111.045568	0.279759	77.466667
109.605401	0.606262	77.483333
110.251593	0.171767	77.500000
108.008981	0.791128	77.516667
108.815528	0.498405	77.533333
108.498920	0.215158	77.550000
106.737641	0.859167	77.566667
108.186279	0.132171	77.583333
106.906601	0.400534	77.600000
105.627057	0.469076	77.616667
106.433605	0.176328	77.633333
104.030503	0.854746	77.650000
104.676561	0.620544	77.666667
104.359818	0.537877	77.683333
103.561608	0.630926	77.700000
104.207933	-0.002525	77.716667
102.125810	0.559146	77.733333
102.130045	0.359681	77.750000
100.850233	0.828122	77.766667
100.372867	1.003787	77.783333
101.821505	0.277385	77.800000
100.381338	0.605048	77.816667
100.546195	0.147984	77.833333
100.229452	0.065936	77.850000
97.023904	1.038028	77.866667
98.793386	0.393868	77.883333
96.390283	1.073238	77.900000
97.357187	0.920908	77.916667
98.645468	0.054406	77.933333
95.921521	0.652190	77.950000
96.246734	0.336269	77.966667
94.325098	0.840308	77.983333
94.329200	0.840308	78.000000
94.333435	0.641639	78.016667
93.214245	0.852993	78.033333
94.662882	0.127342	78.050000
93.222980	0.059155	78.066667
91.461834	0.505114	78.083333
91.465935	0.505114	78.100000
89.062699	1.383669	78.116667
91.634495	0.644850	78.133333
90.836549	0.342967	78.150000
90.038337	0.437703	78.166667
90.684661	-0.192665	78.183333
88.121068	0.546584	78.200000
87.804192	0.663734	78.216667
88.129537	0.150882	78.233333
85.084344	1.263838	78.250000
87.335294	0.443764	78.266667
86.055615	0.714624	78.283333
86.701806	0.282616	78.300000
86.224704	0.063133	78.316667
83.982090	0.685740	78.333333
84.628280	0.253963	78.350000
82.867001	0.898358	78.366667
82.550124	1.015521	78.383333
83.677915	0.210725	78.400000
81.274810	0.892206	78.416667
82.562958	0.226324	78.433333
80.801810	0.673609	78.450000
80.324444	0.849365	78.466667
80.970767	0.220908	78.483333
79.048998	0.923950	78.500000
80.658124	0.141112	78.516667
78.415640	0.567598	78.533333
77.617296	0.860545	78.550000
78.263486	0.429405	78.566667
76.502339	0.877180	78.583333
76.667061	0.621931	78.600000
76.992273	0.308146	78.616667
74.910147	0.873315	78.633333
76.679761	0.032307	78.650000
73.955678	0.831992	78.666667
74.601868	0.401257	78.683333
74.285123	0.322151	78.700000
72.524106	0.574309	78.716667
72.849186	0.457113	78.733333
71.729994	0.671189	78.750000
71.092271	0.709536	78.766667
71.898818	0.416539	78.783333
69.335224	1.158150	78.800000
72.067904	-0.229869	78.816667
69.183332	0.629158	78.833333
69.026944	0.687760	78.850000
69.352286	0.179117	78.866667
67.591138	0.628140	78.883333
67.113903	0.608393	78.900000
67.118004	0.608393	78.916667
65.998813	0.823134	78.933333
67.286959	0.158835	78.950000
65.525810	0.608136	78.966667
66.172130	-0.016887	78.983333
64.731960	0.315398	79.000000
62.649702	1.077334	79.016667
63.937848	0.413311	79.033333
62.176568	1.058035	79.050000
63.304225	0.452678	79.066667
63.468946	0.199046	79.083333
62.189395	0.278095	79.100000
61.712290	0.064323	79.116667
59.630032	0.826329	79.133333
58.831688	1.119409	79.150000
59.798725	0.767713	79.166667
58.358554	1.100552	79.183333
60.128167	0.261114	79.200000
59.169594	0.223695	79.216667
58.050402	0.439558	79.233333
58.375742	-0.066449	79.250000
55.491168	0.794453	79.266667
55.495270	0.794453	79.283333
54.857545	0.834720	79.300000
54.540668	0.951966	79.316667
56.310281	0.112944	79.333333
54.067793	0.545532	79.350000
55.034960	-0.000208	79.366667
53.113451	0.315520	79.383333
52.154617	0.667285	79.400000
51.837870	0.590741	79.416667
51.039526	0.883883	79.433333
50.722779	0.807405	79.450000
50.887500	0.555098	79.466667
49.447328	0.889154	79.483333
51.216941	0.050655	79.500000
49.937388	0.132768	79.516667
48.497216	0.467090	79.533333
47.859490	0.508311	79.550000
46.579678	0.977387	79.566667
47.386355	0.490962	79.583333
46.427651	0.649583	79.600000
46.913350	0.280541	79.616667
46.436242	0.070363	79.633333
45.156559	0.346518	79.650000
44.358344	0.446825	79.666667
43.720618	0.488557	79.683333
42.280316	1.016323	79.700000
43.889310	0.429916	79.716667
42.609756	0.513572	79.733333
43.576922	-0.030933	79.750000
41.976390	0.170382	79.766667
40.215239	0.623010	79.783333
40.219340	0.623010	79.800000
39.420996	0.916237	79.816667
39.425226	0.723838	79.833333
40.071414	0.296909	79.850000
38.310391	0.557527	79.866667
39.438046	-0.045177	79.883333
37.195428	0.583813	79.900000
37.520508	0.466513	79.916667
35.438506	0.844958	79.933333
35.442479	1.036931	79.950000
35.928177	0.669004	79.966667
36.093025	0.226576	79.983333
34.813342	0.504005	80.000000
35.780507	-0.039659	80.016667
33.698634	0.148005	80.033333
32.097715	0.926122	80.050000
31.299370	1.219402	80.066667
31.464089	0.969200	80.083333
31.307702	1.027857	80.100000
31.793399	0.660397	80.116667
32.760693	-0.074361	80.133333
31.641626	-0.046317	80.150000
29.559624	0.333954	80.166667
28.279939	0.612186	80.183333
27.321105	0.964163	80.200000
27.485568	1.096562	80.216667
28.292244	0.612186	80.233333
27.012560	0.890488	80.250000
27.979853	0.156670	80.266667
26.700296	0.244401	80.283333
26.062568	0.288362	80.300000
25.424841	0.332388	80.316667
24.145284	0.420633	80.333333
22.865344	1.080507	80.350000
23.351041	0.713982	80.366667
22.873675	0.889991	80.383333
24.161945	0.039765	80.400000
22.400793	0.494810	80.416667
22.084171	0.231655	80.433333
21.125464	0.393538	80.450000
20.648226	0.379464	80.466667
19.207924	0.907540	80.483333
20.496067	0.248101	80.500000
17.771978	1.055623	80.516667
19.380973	0.468857	80.533333
17.780436	0.675862	80.550000
18.587111	0.192675	80.566667
17.468042	0.224019	80.583333
16.669698	0.517421	80.600000
15.710991	0.679895	80.616667
15.875709	0.431663	80.633333
14.114555	0.887680	80.650000
15.081719	0.346153	80.666667
12.838971	1.167721	80.683333
14.608455	0.522203	80.700000
13.810364	0.436945	80.716667
14.135698	-0.058869	80.733333
12.374544	0.397554	80.750000
11.576453	0.312918	80.766667
10.136151	0.841116	80.783333
10.140253	0.841116	80.800000
9.663013	0.828243	80.816667
10.790666	0.228530	80.833333
9.511106	0.320464	80.850000
9.354845	0.190451	80.866667
8.396264	0.165378	80.883333
7.437556	0.329020	80.900000
6.639338	0.434034	80.916667
5.359525	0.903598	80.933333
5.684606	0.786207	80.950000
7.293726	0.010847	80.966667
4.730252	0.573376	80.983333
5.055332	0.455980	81.000000
4.899196	0.138298	81.016667
3.138042	0.595895	81.033333
4.426184	-0.061746	81.050000
1.702094	0.748194	81.066667
1.706321	0.560281	81.083333
1.068466	0.795090	81.100000
1.233183	0.548535	81.116667
1.237536	0.173005	81.133333
