Thu Nov 07 14:16:45 2013

Number of Points = 1541
Depth (nm)	Load (µN)	Time (s)
-5.641792	-0.009617	0.000000
-8.197860	0.558099	0.016667
-7.704881	0.381918	0.033333
-7.853984	0.626562	0.050000
-8.163576	0.929988	0.066667
-6.547172	0.342735	0.083333
-7.177619	0.577636	0.100000
-6.524151	0.342735	0.116667
-6.673004	0.215480	0.133333
-7.464064	0.695087	0.150000
-7.131575	0.577636	0.166667
-7.601532	0.753812	0.183333
-7.269167	0.822397	0.200000
-5.973742	0.352600	0.216667
-6.443823	0.714871	0.233333
-5.469252	0.176427	0.250000
-6.099698	0.411325	0.266667
-6.409166	0.528774	0.283333
-6.076801	0.597424	0.300000
-6.707372	1.018473	0.316667
-6.053779	0.597424	0.333333
-6.042393	0.783581	0.350000
-6.191371	0.842304	0.366667
-5.217049	0.676184	0.383333
-6.007860	0.783581	0.400000
-5.354392	0.548688	0.416667
-5.182392	0.489965	0.433333
-5.812963	0.911074	0.450000
-4.999005	0.617462	0.466667
-5.789941	0.911074	0.483333
-5.618065	1.038626	0.500000
-4.804108	0.745018	0.516667
-5.113576	0.862461	0.533333
-4.299618	0.568853	0.550000
-4.930065	0.803740	0.566667
-4.758064	0.745018	0.583333
-4.586064	0.686296	0.600000
-5.216760	1.293911	0.616667
-4.723656	0.931355	0.633333
-5.193738	1.293911	0.650000
-4.540395	1.245484	0.666667
-3.886802	0.824149	0.683333
-4.035780	0.882869	0.700000
-3.703291	0.765429	0.716667
-3.852269	0.824149	0.733333
-4.322351	1.186764	0.750000
-3.508394	0.893167	0.766667
-4.299329	1.186764	0.783333
-3.806475	1.197121	0.800000
-3.794964	1.197121	0.816667
-3.462475	1.079684	0.833333
-2.969496	0.903528	0.850000
-3.278964	1.020965	0.866667
-3.427942	1.079684	0.883333
-3.095578	1.148822	0.900000
-3.726024	1.383694	0.916667
-3.072556	1.148822	0.933333
-3.221659	1.394174	0.950000
-2.889170	1.276740	0.966667
-2.556680	1.159305	0.983333
-2.705658	1.218022	1.000000
-2.373169	1.100588	1.016667
-2.682762	1.404717	1.033333
-2.350397	1.474037	1.050000
-2.338761	1.287284	1.066667
-2.808718	1.463433	1.083333
-2.155500	1.602134	1.100000
-2.625332	1.591469	1.116667
-1.971989	1.543419	1.133333
-1.639500	1.425989	1.150000
-1.948967	1.543419	1.166667
-1.616478	1.425989	1.183333
-1.926071	1.730291	1.200000

-1.914560	1.730291	1.216667
-1.903049	1.730291	1.233333
-1.731174	1.858507	1.250000
-1.398684	1.741080	1.266667
-0.905705	1.564939	1.283333
-1.215173	1.682366	1.300000
-1.203662	1.682366	1.316667
-1.352766	1.928070	1.333333
-0.859787	1.751932	1.350000
-0.848276	1.751932	1.366667
-1.157869	2.056407	1.383333
-0.665015	2.067380	1.400000
-0.813868	1.938983	1.416667
-0.802483	2.126091	1.433333
-0.470119	2.195837	1.450000
-0.779461	2.126091	1.466667
0.034496	1.832535	1.483333
-0.274971	1.949957	1.500000
-0.263586	2.137127	1.516667
-0.091586	2.078416	1.533333
-0.401179	2.383064	1.550000
-0.229178	2.324354	1.566667
-0.057178	2.265644	1.583333
0.275186	2.335512	1.600000
0.447186	2.276803	1.616667
0.298208	2.335512	1.633333
0.309719	2.335512	1.650000
0.000000	2.827678	1.666667
1.295048	2.920592	1.683333
1.306308	3.295934	1.700000
2.440488	4.012459	1.716667
3.574667	4.731141	1.733333
5.029570	5.712304	1.750000
6.484344	6.886712	1.766667
8.420582	7.889928	1.783333
10.196327	8.956691	1.800000
12.132559	9.969656	1.816667
13.908426	10.854612	1.833333
15.684419	11.551469	1.850000
17.139303	12.560961	1.866667
18.915034	13.649915	1.883333
20.851380	14.491667	1.900000
22.787854	15.143436	1.916667
24.403347	15.915430	1.933333
26.018838	16.690385	1.950000
27.473707	17.722013	1.966667
29.088932	18.894508	1.983333
31.025263	19.758501	2.000000
32.801234	20.488378	2.016667
34.416715	21.279815	2.033333
36.353171	21.957053	2.050000
37.968647	22.754428	2.066667
39.583988	23.753012	2.083333
41.038971	24.615294	2.100000
42.333196	25.937413	2.116667
44.429863	26.971616	2.133333
46.205817	27.727347	2.150000
47.821279	28.544594	2.166667
49.436606	29.565839	2.183333
51.051929	30.590941	2.200000
52.827739	31.561379	2.216667
54.282568	32.652715	2.233333
55.897748	33.892376	2.250000
57.834039	34.816382	2.266667
59.449349	35.861259	2.283333
61.385635	36.793021	2.300000
63.000940	37.845630	2.316667
64.616380	38.696734	2.333333
66.231681	39.756589	2.350000
67.686489	40.878766	2.366667
69.141157	42.211577	2.383333
70.916660	43.639726	2.400000
72.852927	44.599563	2.416667
74.468213	45.680156	2.433333
76.243986	46.706186	2.450000
77.538149	48.120690	2.466667
79.474265	49.306386	2.483333
80.928769	50.882661	2.500000
82.704247	52.348126	2.516667
84.158885	53.724737	2.533333
86.094845	55.143243	2.550000
88.031229	55.929640	2.566667
89.485857	57.320343	2.583333
91.100972	58.657548	2.600000
92.716083	59.999629	2.616667
94.170558	61.619720	2.633333
95.945862	63.344567	2.650000
97.881940	64.586230	2.666667
99.176059	66.066077	2.683333
100.790862	67.868407	2.700000
102.405514	69.895851	2.716667
104.502066	71.101480	2.733333
106.117002	72.705883	2.750000
107.731933	74.316294	2.766667
109.346861	75.932714	2.783333
110.640658	77.892486	2.800000
112.415769	79.906271	2.816667
114.190874	81.928691	2.833333
115.805783	83.572116	2.850000
117.259750	85.950419	2.866667
119.034839	87.998010	2.883333
120.809921	90.054240	2.900000
122.264020	92.235478	2.916667
124.038939	94.535474	2.933333
125.814004	96.618318	2.950000
127.107444	99.112240	2.966667
129.042832	101.383664	2.983333
130.817878	103.493843	3.000000
132.271941	105.728902	3.016667
134.046976	107.856354	3.033333
135.822005	109.992455	3.050000
137.275739	112.718156	3.066667
139.211245	114.814888	3.083333
140.825767	117.036415	3.100000
142.440126	119.501184	3.116667
144.215124	121.682648	3.133333
145.669140	123.988822	3.150000
147.443968	126.424377	3.166667
149.058301	128.928074	3.183333
150.672627	131.441887	3.200000
152.607924	133.849862	3.216667
154.222558	135.904238	3.233333
155.997514	138.148407	3.250000
157.772627	140.160055	3.266667
159.226757	142.294874	3.283333
160.680557	144.921985	3.300000
162.615817	147.385462	3.316667
164.230256	149.730825	3.333333
166.165994	151.479637	3.350000
167.459445	153.956651	3.366667
169.395010	155.964754	3.383333
170.688119	158.951878	3.400000
172.462852	161.529511	3.416667
173.916601	164.232961	3.433333
176.012131	166.964436	3.450000
177.626522	169.381165	3.466667
179.401396	171.748757	3.483333
181.015776	174.182808	3.500000
182.630318	176.373485	3.516667
184.405175	178.766380	3.533333
186.180366	180.661222	3.550000
187.794894	182.873801	3.566667
189.409246	185.348321	3.583333
191.023764	187.576145	3.600000
192.798594	190.009575	3.616667
194.413273	191.995993	3.633333
195.546138	194.676078	3.650000
197.160117	197.707984	3.666667
199.095239	200.377361	3.683333
200.548714	203.489602	3.700000
202.483647	206.440695	3.716667
204.097945	208.996064	3.733333
205.872550	211.764565	3.750000
207.326348	214.395585	3.766667
209.100940	217.183651	3.783333
210.715037	220.039460	3.800000
212.489616	222.847882	3.816667
214.424854	225.343099	3.833333
216.199955	227.371591	3.850000
217.493587	229.578699	3.866667
219.107833	232.212176	3.883333
220.882382	235.065324	3.900000
222.014789	238.427854	3.916667
224.110120	241.457328	3.933333
225.563670	244.457458	3.950000
227.337826	247.896408	3.966667
228.791179	251.191017	3.983333
230.565501	254.382576	4.000000
232.339815	257.585939	4.016667
234.114305	260.525989	4.033333
235.888789	263.476241	4.050000
237.663451	266.160089	4.066667
238.956642	269.024636	4.083333
240.891408	272.224696	4.100000
242.505564	274.993403	4.116667
244.280014	277.993100	4.133333
246.054833	280.442358	4.150000
247.508483	283.294438	4.166667
248.961938	286.436910	4.183333
250.575496	290.097471	4.200000
252.188854	294.055102	4.216667
253.962691	297.970891	4.233333
255.576412	301.388387	4.250000
257.189932	305.103908	4.266667
258.803637	308.545826	4.283333
260.416947	312.575502	4.300000
262.190736	316.563429	4.316667
263.804025	320.623843	4.333333
265.898964	324.237544	4.350000
267.512820	327.452715	4.366667
269.287550	330.036404	4.383333
270.740709	333.620538	4.400000
272.354545	336.865539	4.416667
274.128665	340.358413	4.433333
275.742289	343.920112	4.450000
277.195218	347.846977	4.466667
278.808427	352.027737	4.483333
280.421826	355.925584	4.500000
282.195503	360.079241	4.516667
284.129860	363.891293	4.533333
285.582944	367.586615	4.550000
287.035616	371.897375	4.566667
288.969336	376.658760	4.583333
290.582678	380.641483	4.600000
292.195603	385.247343	4.616667
294.130106	388.839672	4.633333
295.743625	392.557422	4.650000
297.678319	395.866181	4.666667
299.131748	399.047380	4.683333
300.745038	403.107014	4.700000
302.358527	406.870439	4.716667
303.971800	410.956299	4.733333
305.745760	414.687565	4.750000
307.359224	418.487349	4.766667
308.651076	423.351875	4.783333
310.745776	427.322151	4.800000
312.358792	431.790989	4.816667
313.811522	436.015735	4.833333
315.745706	440.084367	4.850000
317.358905	444.279707	4.866667
318.972096	448.488621	4.883333
320.745979	452.335031	4.900000
322.519639	456.513748	4.916667
324.133234	460.119969	4.933333
325.907309	463.679991	4.950000
327.681593	466.927542	4.966667
328.973975	471.000100	4.983333
330.908300	474.858877	5.000000
332.521859	478.517137	5.016667
333.813781	483.276441	5.033333
335.747862	487.498722	5.050000
337.360959	491.847302	5.066667
338.813338	496.594595	5.083333
340.747392	500.858683	5.100000
342.360682	504.918345	5.116667
344.134008	509.596592	5.133333
345.907991	513.293117	5.150000
347.360770	517.445462	5.166667
349.134515	521.497276	5.183333
350.587053	526.008178	5.200000
352.521045	530.364215	5.216667
354.134503	534.172967	5.233333
355.747729	538.329342	5.250000
357.521434	542.441507	5.266667
358.652727	547.468098	5.283333
360.585991	552.910157	5.300000
362.359211	557.745327	5.316667
363.972163	562.309881	5.333333
365.906311	566.433129	5.350000
367.037783	571.191956	5.366667
369.292427	575.917432	5.383333
371.066525	579.443842	5.400000
372.519410	583.437134	5.416667
374.132542	587.731863	5.433333
375.745900	591.690570	5.450000
377.519272	596.301161	5.466667
379.132615	600.282010	5.483333
380.584994	605.029753	5.500000
382.518826	609.623716	5.516667
383.971188	614.398706	5.533333
385.422830	620.246980	5.550000
387.356395	625.238914	5.566667
388.808489	630.413529	5.583333
390.581307	635.848445	5.600000
392.354593	640.586473	5.616667
393.806655	645.807520	5.633333
395.740169	650.877186	5.650000
397.353180	655.353726	5.666667
399.126429	660.147365	5.683333
400.739181	665.010247	5.700000
402.351681	670.249385	5.716667
404.446606	673.883619	5.733333
405.899333	678.112834	5.750000
407.351564	683.082261	5.766667
409.124760	687.954410	5.783333
410.415994	693.740296	5.800000
412.188677	699.377375	5.816667
413.800862	705.087360	5.833333
415.573274	711.129496	5.850000
417.346418	716.078175	5.866667
419.119554	721.040567	5.883333
420.892930	725.643965	5.900000
422.184336	731.172270	5.916667
423.796455	736.980153	5.933333
425.890275	742.264274	5.950000
427.663363	747.297905	5.966667
429.437200	751.213318	5.983333
430.890310	754.869981	6.000000
432.503141	759.614829	6.016667
433.955223	764.806326	6.033333
435.567528	770.336923	6.050000
437.340054	776.209561	6.066667
438.952337	781.772219	6.083333
440.403352	788.556212	6.100000
442.336586	794.042837	6.116667
443.949095	799.269458	6.133333
445.721563	805.227828	6.150000
447.334052	810.483658	6.166667
448.785524	816.584892	6.183333
450.718967	821.760166	6.200000
452.491914	827.004074	6.216667
454.265114	831.870593	6.233333
455.877556	837.195896	6.250000
457.490516	841.749213	6.266667
459.424178	846.596970	6.283333
460.555399	851.730443	6.300000
462.327499	858.238617	6.316667
464.100382	863.576888	6.333333
465.552284	869.038234	6.350000
467.324882	874.802252	6.366667
468.936983	880.636500	6.383333
470.388320	886.941147	6.400000
472.321104	893.099633	6.416667
473.933172	898.982554	6.433333
476.026960	904.314368	6.450000
477.479334	909.069987	6.466667
479.252403	914.131751	6.483333
480.543733	919.774505	6.500000
482.316240	925.674257	6.516667
484.089283	930.774586	6.533333
485.862045	936.295299	6.550000
487.313824	941.938476	6.566667
489.086018	948.307174	6.583333
490.698264	953.925285	6.600000
492.149462	960.435697	6.616667
494.082384	966.387733	6.633333
495.533560	972.932257	6.650000
497.305974	978.970774	6.666667
499.399908	984.084538	6.683333
500.852169	989.010184	6.700000
502.464628	994.309642	6.716667
503.916033	1000.512225	6.733333
505.688118	1007.041810	6.750000
507.460755	1012.747938	6.766667
508.751360	1019.472800	6.783333
511.005153	1025.468776	6.800000
512.296302	1031.380898	6.816667
513.907562	1038.471908	6.833333
515.840635	1044.198503	6.850000
517.452727	1050.046710	6.866667
518.904324	1055.962532	6.883333
520.836796	1062.586839	6.900000
522.288373	1068.531973	6.916667
524.060913	1074.383291	6.933333
525.833443	1080.248433	6.950000
527.606254	1085.695646	6.966667
529.218571	1091.208635	6.983333
530.830879	1096.733658	7.000000
532.282403	1102.758645	7.016667
534.054597	1109.125366	7.033333
535.345324	1115.668558	7.050000
537.437883	1122.833983	7.066667
538.567514	1130.340493	7.083333
540.820533	1137.492066	7.100000
542.271699	1144.049967	7.116667
544.043531	1150.958010	7.133333
545.976726	1156.503170	7.150000
547.267673	1162.717212	7.166667
549.040068	1168.784857	7.183333
550.972940	1174.813017	7.200000
552.584830	1180.961703	7.216667
554.357497	1186.624119	7.233333
555.809484	1191.957593	7.250000
557.582134	1197.643329	7.266667
559.033806	1203.447600	7.283333
560.484263	1211.064632	7.300000
562.577254	1217.586101	7.316667
563.867806	1224.389034	7.333333
565.478408	1232.461186	7.350000
567.410880	1239.085937	7.366667
568.862189	1245.430314	7.383333
570.794029	1252.998133	7.400000
572.245318	1259.372824	7.416667
574.017262	1266.113547	7.433333
575.789503	1272.410894	7.450000
577.240148	1279.748009	7.466667
579.172546	1286.483062	7.483333
580.784272	1292.877573	7.500000
582.556784	1298.770253	7.516667
584.329288	1304.675066	7.533333
585.620328	1310.750276	7.550000
587.552365	1318.022919	7.566667
589.164358	1324.019330	7.583333
590.293635	1332.055219	7.600000
592.225324	1339.847556	7.616667
593.675544	1347.817614	7.633333
595.767377	1356.067897	7.650000
597.539805	1362.086628	7.666667
598.990621	1369.167572	7.683333
600.602229	1375.738181	7.700000
602.212874	1383.746081	7.716667
603.823505	1391.773793	7.733333
605.916218	1398.710833	7.750000
607.528104	1404.865776	7.766667
609.300788	1410.502215	7.783333
610.752174	1416.732854	7.800000
612.363394	1423.883281	7.816667
614.135732	1430.035259	7.833333
615.425639	1437.801581	7.850000
617.035857	1446.447162	7.866667
619.128487	1453.505987	7.883333
620.579493	1460.304218	7.900000
622.511944	1466.959999	7.916667
623.801794	1474.811633	7.933333
625.572432	1483.500722	7.950000
627.504851	1490.203783	7.966667
629.116292	1497.024758	7.983333
630.888207	1503.807681	8.000000
632.339474	1510.216729	8.016667
634.111371	1517.026565	8.033333
635.722775	1523.902188	8.050000
637.172028	1533.315778	8.066667
639.264532	1540.563888	8.083333
640.554935	1547.590159	8.100000
642.326116	1555.469939	8.116667
644.097953	1562.370604	8.133333
645.869446	1569.784570	8.150000
647.480778	1576.765673	8.166667
648.931618	1583.812264	8.183333
650.541923	1592.327684	8.200000
652.473520	1600.256609	8.216667
653.923315	1608.862253	8.233333
655.855904	1615.311938	8.250000
657.306692	1622.434285	8.266667
658.917276	1630.533298	8.283333
660.849838	1637.023045	8.300000
662.299916	1645.205931	8.316667
664.232119	1652.232613	8.333333
665.682516	1659.938029	8.350000
667.293388	1667.607934	8.366667
669.064389	1675.755312	8.383333
670.675239	1683.457803	8.400000
672.285733	1691.690965	8.416667
674.057391	1698.859070	8.433333
675.507378	1707.176866	8.450000
677.599290	1715.308254	8.466667
679.050297	1722.105219	8.483333
680.660735	1730.422293	8.500000
682.432691	1737.144179	8.516667
683.882623	1745.544717	8.533333
685.813995	1753.810379	8.550000
687.264254	1761.722846	8.566667
689.196306	1768.974091	8.583333
690.646545	1776.917190	8.600000
692.257257	1784.825302	8.616667
693.867958	1792.749233	8.633333
695.638778	1801.166744	8.650000
697.088264	1810.232930	8.666667
699.019900	1818.106038	8.683333
700.790684	1826.577191	8.700000
702.883495	1833.367714	8.716667
704.335076	1839.306239	8.733333
705.785936	1846.321588	8.750000
707.396914	1853.833487	8.766667
708.686196	1862.531879	8.783333
710.616682	1872.120474	8.800000
712.548595	1879.579034	8.816667
714.159170	1887.691214	8.833333
715.931303	1894.149484	8.850000
717.382100	1901.259428	8.866667
718.992647	1909.414299	8.883333
720.602819	1918.127575	8.900000
722.373463	1926.808561	8.916667
723.983977	1935.012958	8.933333
725.594114	1943.778793	8.950000
727.525206	1952.462424	8.966667
729.296536	1960.118816	8.983333
730.747625	1966.792368	9.000000
732.357719	1975.623534	9.016667
733.968538	1983.371870	9.033333
735.577870	1993.339457	9.050000
737.509264	2001.572140	9.066667
739.119681	2009.920406	9.083333
740.891685	2016.572004	9.100000
742.341971	2024.443751	9.116667
743.952731	2032.279734	9.133333
745.883702	2041.144331	9.150000
747.334333	2048.501909	9.166667
748.783832	2057.548107	9.183333
750.715145	2065.903561	9.200000
752.164245	2075.545397	9.216667
753.934298	2085.108219	9.233333
755.865575	2093.515517	9.250000
757.476254	2101.473671	9.266667
759.408646	2108.217501	9.283333
760.699098	2115.169415	9.300000
762.469095	2124.816246	9.316667
764.079736	2132.829570	9.333333
765.528743	2142.611739	9.350000
767.620812	2150.508221	9.366667
769.231806	2157.995979	9.383333
771.003274	2165.446866	9.400000
772.293285	2173.057365	9.416667
773.903102	2182.300978	9.433333
775.834258	2190.890332	9.450000
777.444822	2199.018669	9.466667
778.733640	2208.410907	9.483333
780.663990	2218.202376	9.500000
782.273748	2227.533586	9.516667
784.044365	2236.254719	9.533333
785.654100	2245.620785	9.550000
787.585567	2253.744971	9.566667
789.196060	2261.980782	9.583333
790.646450	2269.696437	9.600000
792.416625	2279.078389	9.616667
794.027088	2287.357243	9.633333
795.475882	2297.456130	9.650000
797.406504	2306.842443	9.666667
799.016936	2315.168043	9.683333
800.947929	2323.999556	9.700000
802.397859	2332.402672	9.716667
804.007471	2341.952787	9.733333
805.617467	2350.929086	9.750000
807.227056	2360.514068	9.766667
808.997512	2369.474962	9.783333
810.767958	2378.451881	9.800000
812.216630	2388.732715	9.816667
814.308817	2396.453803	9.833333
815.919949	2403.734265	9.850000
817.209309	2412.318199	9.866667
818.979302	2421.970597	9.883333
820.588398	2432.289525	9.900000
822.840619	2440.632148	9.916667
824.291630	2447.422060	9.933333
825.901501	2456.585188	9.950000
827.190397	2465.860013	9.966667
828.638954	2476.313096	9.983333
830.889907	2486.547306	10.000000
832.500953	2493.956707	10.016667
834.111585	2501.984690	10.033333
835.882282	2510.586148	10.050000
837.331598	2519.906854	10.066667
839.101048	2530.370014	10.083333
840.711232	2539.065117	10.100000
842.160515	2548.434626	10.116667
844.090410	2558.905325	10.133333
845.700564	2567.646416	10.150000
847.309883	2577.633224	10.166667
849.080085	2586.973805	10.183333
850.529313	2596.425091	10.200000
852.459146	2606.988179	10.216667
853.908766	2615.853504	10.233333
855.678509	2625.880085	10.250000
857.770452	2633.964995	10.266667
858.899081	2642.967808	10.283333
860.990171	2652.325599	10.300000
862.440162	2660.638729	10.316667
864.210269	2670.120903	10.333333
865.981205	2678.366418	10.350000
867.269848	2688.019614	10.366667
869.200405	2697.501096	10.383333
870.810832	2705.834092	10.400000
872.259504	2716.116464	10.416667
874.029125	2726.323239	10.433333
875.477349	2737.273848	10.450000
877.728389	2747.377768	10.466667
879.178711	2755.196277	10.483333
880.788231	2764.883857	10.500000
882.398166	2773.951413	10.516667
884.168573	2782.986573	10.533333
885.617580	2792.766825	10.550000
887.708501	2802.377224	10.566667
888.997864	2810.956333	10.583333
890.767803	2820.689874	10.600000
892.216769	2830.532205	10.616667
893.825344	2841.629690	10.633333
895.916642	2850.677188	10.650000
897.205094	2860.614793	10.666667
898.974546	2871.075490	10.683333
900.422590	2882.293384	10.700000
902.351629	2894.041134	10.716667
904.281958	2903.864336	10.733333
905.570788	2913.237782	10.750000
907.501096	2923.092280	10.766667
909.272222	2931.053616	10.783333
910.881549	2941.029320	10.800000
912.652221	2949.668110	10.816667
913.941004	2959.111156	10.833333
915.710342	2969.741763	10.850000
917.641468	2978.375573	10.866667
919.090703	2987.816177	10.883333
920.860449	2997.837805	10.900000
922.470586	3006.602886	10.916667
923.758428	3017.451581	10.933333
925.687737	3028.797361	10.950000
927.295627	3040.916826	10.966667
929.387166	3049.605583	10.983333
930.675849	3059.197998	11.000000
932.606445	3068.623095	11.016667
934.055143	3078.864465	11.033333
935.663865	3089.743659	11.050000
937.433054	3100.595758	11.066667
939.203128	3110.127809	11.083333
940.651783	3120.434394	11.100000
942.421387	3130.666836	11.116667
944.030951	3140.288523	11.133333
945.639603	3151.270257	11.150000
947.409176	3161.551172	11.166667
948.857777	3171.938088	11.183333
950.786901	3183.558411	11.200000
952.557347	3192.535887	11.216667
953.684501	3203.738545	11.233333
955.613589	3215.414441	11.250000
957.222158	3226.520040	11.266667
959.313524	3235.466750	11.283333
960.923899	3243.878143	11.300000
962.533352	3253.665544	11.316667
964.143253	3262.783598	11.333333
965.591290	3274.012033	11.350000
967.360275	3285.169657	11.366667
968.968767	3296.389906	11.383333
970.576787	3308.316032	11.400000
972.506676	3318.796273	11.416667
974.116056	3328.691623	11.433333
975.563559	3340.717431	11.450000
977.654821	3349.819832	11.466667
978.942748	3360.540628	11.483333
980.872118	3371.794719	11.500000
982.481448	3381.765939	11.516667
984.090768	3391.751401	11.533333
986.021504	3400.966822	11.550000
987.309847	3411.067744	11.566667
988.917735	3423.189892	11.583333
990.525610	3435.332356	11.600000
992.294420	3446.750828	11.616667
994.064157	3456.784553	11.633333
995.672936	3467.578691	11.650000
997.281232	3479.092433	11.666667
998.889516	3490.624359	11.683333
1000.658267	3502.130945	11.700000
1002.427479	3512.949242	11.716667
1004.036201	3523.827231	11.733333
1005.644912	3534.721390	11.750000
1007.575046	3544.835562	11.766667
1009.185163	3553.630181	11.783333
1010.955277	3563.103420	11.800000
1012.403947	3573.387683	11.816667
1014.012130	3585.068967	11.833333
1015.942695	3594.540110	11.850000
1017.391336	3604.868029	11.866667
1018.999966	3615.882898	11.883333
1020.929543	3626.827943	11.900000
1022.217675	3637.243416	11.916667
1024.146749	3648.938799	11.933333
1025.595340	3659.341632	11.950000
1027.202468	3672.598878	11.966667
1029.131989	3683.627363	11.983333
1030.740542	3694.757674	12.000000
1032.510048	3705.137700	12.016667
1033.797623	3716.384737	12.033333
1035.725642	3729.654954	12.050000
1037.817046	3738.544014	12.066667
1039.105564	3748.384211	12.083333
1041.035986	3758.066930	12.100000
1042.324487	3767.931988	12.116667
1043.932958	3779.185146	12.133333
1045.701406	3791.143523	12.150000
1046.987916	3803.979475	12.166667
1049.237283	3816.582327	12.183333
1050.685720	3827.213059	12.200000
1052.615583	3837.731640	12.216667
1054.225467	3846.876301	12.233333
1055.352427	3858.369299	12.250000
1057.280283	3871.883129	12.266667
1059.049627	3882.504107	12.283333
1060.817969	3894.620070	12.300000
1062.747771	3905.229883	12.316667
1064.197124	3914.495311	12.333333
1065.805453	3925.958692	12.350000
1067.415268	3935.206424	12.366667
1068.701125	3949.017491	12.383333
1070.789356	3962.642999	12.400000
1072.237663	3973.468747	12.416667
1074.005412	3986.470146	12.433333
1076.096111	3996.412263	12.450000
1077.383911	4007.324283	12.466667
1079.313611	4018.084973	12.483333
1080.440914	4029.066822	12.500000
1082.207595	4043.662399	12.516667
1083.977291	4053.758266	12.533333
1085.583972	4067.682914	12.550000
1087.996065	4076.887876	12.566667
1089.285314	4085.635001	12.583333
1091.054975	4095.783176	12.600000
1092.343196	4106.067013	12.616667
1093.790359	4118.600441	12.633333
1095.557445	4132.591436	12.650000
1097.486524	4144.279254	12.666667
1098.934161	4156.105936	12.683333
1101.186219	4164.691046	12.700000
1102.313394	4175.863490	12.716667
1104.081443	4188.417927	12.733333
1105.368048	4201.112615	12.750000
1107.456512	4214.390095	12.766667
1109.064561	4226.272775	12.783333
1110.673114	4237.402293	12.800000
1112.601580	4250.006186	12.816667
1114.372140	4258.812101	12.833333
1115.659711	4270.064605	12.850000
1117.428186	4281.983581	12.866667
1118.875696	4293.999399	12.883333
1120.964583	4306.645869	12.900000
1122.735103	4315.510838	12.916667
1124.023667	4325.282225	12.933333
1125.952568	4337.237065	12.950000
1127.400027	4349.328385	12.966667
1129.007952	4361.395972	12.983333
1130.776866	4372.659318	13.000000
1132.063292	4385.619916	13.016667
1134.151566	4399.182470	13.033333
1135.760496	4409.749951	13.050000
1137.528317	4422.644193	13.066667
1139.298231	4432.414341	13.083333
1140.585655	4443.887077	13.100000
1142.514447	4456.003233	13.116667
1143.800795	4469.082353	13.133333
1145.729035	4482.021862	13.150000
1147.497847	4493.438287	13.166667
1148.785219	4504.987253	13.183333
1151.033847	4518.691924	13.200000

1152.483270	4527.853116	13.216667
1154.089969	4541.749515	13.233333
1155.859263	4552.445885	13.250000
1157.145519	4565.660843	13.266667
1158.913726	4577.979549	13.283333
1160.842398	4590.275713	13.300000
1162.290166	4601.906014	13.316667
1164.057804	4615.073240	13.333333
1165.664954	4628.297794	13.350000
1167.111616	4641.579516	13.366667
1169.200707	4653.921262	13.383333
1170.647344	4667.238725	13.400000
1172.415461	4679.691833	13.416667
1174.023091	4692.199969	13.433333
1175.952202	4703.840100	13.450000
1177.559811	4716.380074	13.466667
1179.167951	4728.127154	13.483333
1180.776081	4739.888679	13.500000
1182.223726	4751.702970	13.516667
1184.151155	4765.853152	13.533333
1186.080750	4776.771335	13.550000
1187.206868	4789.521196	13.566667
1189.135353	4802.096578	13.583333
1190.742876	4814.764659	13.600000
1192.188270	4829.938512	13.616667
1194.116719	4842.566394	13.633333
1195.725304	4853.648351	13.650000
1197.332233	4867.203118	13.666667
1199.750324	4867.455773	13.683333
1199.125976	4858.588154	13.700000
1198.512589	4833.362002	13.716667
1197.421015	4803.414596	13.733333
1196.011703	4768.749103	13.750000
1194.442381	4733.425060	13.766667
1192.873521	4697.412373	13.783333
1191.145720	4659.148655	13.800000
1189.094185	4625.112909	13.816667
1187.362455	4592.712386	13.833333
1185.791132	4560.376377	13.850000
1183.897722	4529.811094	13.866667
1182.486209	4498.429773	13.883333
1180.754207	4466.435752	13.900000
1179.182612	4434.505688	13.916667
1177.450471	4402.718579	13.933333
1175.396783	4371.896838	13.950000
1173.823414	4342.614082	13.966667
1172.249986	4313.420165	13.983333
1170.356063	4283.620136	14.000000
1168.943509	4253.793185	14.016667
1166.888468	4224.991694	14.033333
1165.314798	4196.158107	14.050000
1163.579051	4169.752122	14.066667
1161.844278	4141.893914	14.083333
1160.268905	4115.602707	14.100000
1159.016471	4086.266911	14.116667
1156.799589	4059.541974	14.133333
1155.224562	4032.732901	14.150000
1153.649482	4006.003572	14.166667
1152.074349	3979.353977	14.183333
1150.339688	3951.328792	14.200000
1148.443989	3924.180228	14.216667
1146.706718	3900.050400	14.233333
1145.613301	3872.852694	14.250000
1143.235014	3847.553305	14.266667
1142.140500	3821.994004	14.283333
1140.084052	3795.291467	14.300000
1138.508000	3770.013239	14.316667
1137.092866	3744.036924	14.333333
1135.517200	3718.182496	14.350000
1133.782463	3690.270489	14.366667
1131.724279	3666.158723	14.383333
1129.825559	3643.520738	14.400000
1128.408231	3620.817665	14.416667
1126.669904	3598.263386	14.433333
1125.575370	3572.734077	14.450000
1123.680303	3544.643011	14.466667
1121.622306	3520.252215	14.483333
1120.206175	3495.763840	14.500000
1117.986176	3473.690886	14.516667
1116.728535	3452.126364	14.533333
1114.990362	3429.343625	14.550000
1113.413562	3405.180628	14.566667
1112.158609	3379.605971	14.583333
1110.100735	3355.031800	14.600000
1108.201424	3333.274889	14.616667
1106.623029	3311.493124	14.633333
1104.883650	3290.510102	14.650000
1103.627517	3266.695198	14.666667
1101.728495	3244.507408	14.683333
1100.472724	3220.152867	14.700000
1098.575896	3194.689535	14.716667
1096.356224	3172.127572	14.733333
1095.098019	3151.405621	14.750000
1093.520176	3128.800875	14.766667
1091.619968	3108.381964	14.783333
1090.363896	3084.477049	14.800000
1088.304921	3061.547487	14.816667
1087.048296	3038.467531	14.833333
1084.667365	3017.112602	14.850000
1083.247935	2997.547413	14.866667
1081.829801	2976.048556	14.883333
1079.929738	2955.413867	14.900000
1078.511957	2933.387639	14.916667
1077.095009	2910.118573	14.933333
1074.553328	2889.213142	14.950000
1073.133653	2870.012566	14.966667
1071.393417	2850.308076	14.983333
1070.134583	2830.524609	15.000000
1068.395569	2808.996784	15.016667
1066.977900	2786.802517	15.033333
1065.240081	2763.490143	15.050000
1063.019475	2742.322497	15.066667
1061.278125	2724.280467	15.083333
1059.697221	2706.243728	15.100000
1058.115857	2688.894074	15.116667
1057.178933	2667.604548	15.133333
1054.958956	2645.496941	15.150000
1053.379166	2625.798231	15.166667
1051.639273	2605.581937	15.183333
1049.577115	2587.402591	15.200000
1048.478644	2567.749126	15.216667
1046.577724	2548.393879	15.233333
1044.997724	2529.007116	15.250000
1043.418097	2509.065395	15.266667
1041.517049	2489.900836	15.283333
1039.936511	2471.318052	15.300000
1037.874898	2452.324982	15.316667
1036.292236	2436.912804	15.333333
1035.193438	2417.747778	15.350000
1033.132112	2398.325359	15.366667
1032.033229	2379.287116	15.383333
1029.972219	2359.393913	15.400000
1028.230919	2341.276988	15.416667
1026.650463	2322.572318	15.433333
1024.748601	2304.623319	15.450000
1023.328942	2285.399111	15.466667
1022.070119	2265.600254	15.483333
1020.009232	2245.523191	15.500000
1018.589437	2226.504307	15.516667
1016.366398	2208.967893	15.533333
1014.463109	2193.148186	15.550000
1013.041626	2176.647445	15.566667
1011.298753	2160.877121	15.583333
1009.877980	2143.318080	15.600000
1008.296684	2125.866558	15.616667
1006.554480	2109.098698	15.633333
1004.973876	2090.614775	15.650000
1003.071495	2073.439649	15.666667
1001.810241	2057.267326	15.683333
999.748063	2039.118591	15.700000
998.004908	2023.770613	15.716667
996.584200	2006.112575	15.733333
994.680870	1990.353968	15.750000
993.419814	1973.887740	15.766667
991.517538	1956.556046	15.783333
989.935813	1939.745095	15.800000
988.354420	1922.437344	15.816667
986.130311	1906.498411	15.833333
984.867956	1891.971433	15.850000
983.125595	1875.437689	15.866667
981.542576	1860.557727	15.883333
979.800140	1844.135836	15.900000
978.217784	1828.267290	15.916667
976.957085	1811.267539	15.933333
975.376465	1792.808044	15.950000
973.153138	1775.701750	15.966667
971.248935	1761.245869	15.983333
969.665667	1746.737219	16.000000
967.921884	1732.326994	16.016667
966.499392	1717.331709	16.033333
964.916382	1702.438277	16.050000
963.334046	1686.539501	16.066667
961.430703	1670.800821	16.083333
959.847936	1655.543844	16.100000
958.104299	1640.915441	16.116667
956.521111	1626.287509	16.133333
954.777753	1611.242568	16.150000
953.033664	1597.287671	16.166667
951.450028	1583.329607	16.183333
950.188361	1567.774609	16.200000
948.285061	1551.970735	16.216667
946.862831	1536.585664	16.233333
944.638480	1521.007517	16.250000
942.733020	1508.428651	16.266667
941.309323	1495.231682	16.283333
939.725450	1481.627180	16.300000
937.981732	1467.118716	16.316667
936.558277	1453.561580	16.333333
934.814488	1439.159176	16.350000
933.069665	1426.300890	16.366667
931.646444	1412.393894	16.383333
929.581580	1398.252558	16.400000
927.997147	1385.484168	16.416667
926.573168	1372.708234	16.433333
925.150794	1357.537041	16.450000
923.568220	1341.994216	16.466667
921.503497	1327.641737	16.483333
919.759060	1314.207747	16.500000
918.013944	1301.785993	16.516667
916.428963	1289.835365	16.533333
914.684108	1277.023640	16.550000
912.939222	1264.259735	16.566667
911.836561	1250.859788	16.583333
909.771272	1237.353848	16.600000
908.186771	1224.685719	16.616667
906.442067	1211.649282	16.633333
904.536218	1199.650642	16.650000
903.111171	1188.469166	16.666667
901.687031	1175.934016	16.683333
899.782022	1162.680872	16.700000
898.358124	1149.784079	16.716667
896.452736	1137.097151	16.733333
894.867979	1124.812279	16.750000
892.961913	1113.136350	16.766667
891.376485	1101.852333	16.783333
889.791635	1089.705432	16.800000
888.207357	1076.705741	16.816667
886.462255	1064.262283	16.833333
885.038390	1051.316708	16.850000
883.132436	1039.475432	16.866667
881.547123	1028.018398	16.883333
879.480620	1016.324397	16.900000
878.055438	1005.344220	16.916667
876.630523	993.966595	16.933333
874.724998	981.483820	16.950000
872.818271	970.795542	16.966667
871.393264	959.553978	16.983333
869.486191	949.381547	17.000000
868.221614	938.171432	17.016667
866.154576	927.274535	17.033333
864.729167	916.633750	17.050000
862.822843	905.344694	17.066667
861.557578	895.159040	17.083333
859.811397	884.328468	17.100000
858.225671	873.488159	17.116667
856.640197	862.273029	17.133333
854.894484	850.742261	17.150000
852.987694	840.147890	17.166667
851.401292	830.317601	17.183333
849.976180	819.233328	17.200000
847.909091	808.413751	17.216667
846.483367	798.242788	17.233333
844.575883	788.683654	17.250000
843.149833	778.999280	17.266667
841.082354	768.761393	17.283333
839.656251	759.155876	17.300000
838.069637	749.642770	17.316667
836.162024	740.276797	17.333333
834.896331	730.730307	17.350000
833.149686	720.591567	17.366667
831.403011	710.497056	17.383333
829.977543	699.943517	17.400000
828.391820	689.100177	17.416667
826.645314	678.752767	17.433333
824.577543	668.951277	17.450000
822.829937	660.245563	17.466667
821.564027	651.024203	17.483333
819.817146	641.237346	17.500000
818.230209	632.204642	17.516667
816.162042	622.994046	17.533333
814.413804	615.232604	17.550000
812.826540	606.688843	17.566667
811.239000	598.556829	17.583333
809.490952	590.512136	17.600000
808.064357	581.640960	17.616667
806.316513	573.290680	17.633333
804.729133	564.920022	17.650000
803.302712	555.789653	17.666667
801.394556	547.234359	17.683333
799.807348	538.606125	17.700000
798.059873	529.706168	17.716667
796.472613	521.155091	17.733333
794.724599	513.059405	17.750000
792.976320	505.359300	17.766667
791.388747	497.276409	17.783333
789.640903	488.926264	17.800000
787.892318	481.682966	17.816667
786.304438	474.058270	17.833333
784.877024	466.409844	17.850000
783.611255	456.976892	17.866667
781.221105	449.383622	17.883333
779.633133	441.895343	17.900000
778.045141	434.439076	17.916667
776.296407	427.417181	17.933333
774.869091	419.622560	17.950000
773.281264	411.918677	17.966667
771.693643	403.907472	17.983333
769.785250	395.705543	18.000000
767.394231	389.408461	18.016667
766.447355	382.971419	18.033333
764.537989	376.221592	18.050000
762.789091	369.444995	18.066667
761.521636	362.529141	18.083333
759.772922	355.478346	18.100000
758.184674	348.403319	18.116667
756.596404	341.360254	18.133333
754.847846	334.076874	18.150000
753.099045	327.155477	18.166667
751.028592	321.356526	18.183333
749.760779	314.975194	18.200000
748.012135	307.819579	18.216667
746.423308	301.608146	18.233333
744.834678	295.102636	18.250000
742.924839	289.058822	18.266667
741.335745	283.246927	18.283333
739.586359	277.198771	18.300000
737.836955	271.177325	18.316667
736.408087	265.698443	18.333333
734.498161	259.784477	18.350000
733.069262	254.351566	18.366667
731.480487	248.064202	18.383333
729.570300	242.538757	18.400000
728.302256	236.502168	18.416667
726.391831	231.333658	18.433333
725.124163	224.735753	18.450000
723.214318	218.701484	18.466667
721.143558	213.360063	18.483333
719.393353	208.533769	18.500000
717.803623	203.670251	18.516667
716.374368	198.769444	18.533333
714.624325	193.702995	18.550000
712.553290	188.772318	18.566667
711.284283	184.172380	18.583333
709.694685	179.112245	18.600000
708.104875	174.368567	18.616667
706.515248	169.350931	18.633333
704.925803	164.062744	18.650000
703.015170	159.204030	18.666667
701.585793	154.485996	18.683333
699.835619	149.612744	18.700000
698.085431	144.761339	18.716667
696.334845	140.505313	18.733333
694.744734	136.209634	18.750000
693.154803	131.646683	18.766667
691.404180	127.444219	18.783333
689.653546	123.259279	18.800000
687.742411	119.149119	18.816667
685.991189	115.841477	18.833333
684.561123	112.151226	18.850000
683.131235	108.195577	18.866667
681.380546	104.092054	18.883333
679.629474	100.560050	18.900000
677.878578	96.765585	18.916667
676.287791	93.479683	18.933333
674.697180	89.931284	18.950000
672.946255	86.180492	18.966667
671.516113	82.602850	18.983333
669.444009	79.268580	19.000000
668.174338	75.660743	19.016667
666.744169	72.123946	19.033333
664.832706	68.504328	19.050000
663.081541	65.110680	19.066667
661.009032	62.379972	19.083333
659.578471	59.429475	19.100000
657.987414	56.546767	19.116667
656.235684	53.996757	19.133333
654.965590	51.018665	19.150000
653.214201	47.960235	19.166667
651.141475	45.553923	19.183333
649.871361	42.606566	19.200000
647.798623	40.218587	19.216667
646.367659	37.869255	19.233333
644.615886	35.382871	19.250000
642.863934	33.164258	19.266667
641.593443	30.780024	19.283333
640.002143	28.260823	19.300000
638.250175	26.065023	19.316667
636.337715	23.934329	19.333333
634.746055	21.951301	19.350000
633.315050	19.661571	19.366667
631.402405	17.806836	19.383333
629.971051	16.038885	19.400000
628.218886	14.138059	19.416667
626.305890	12.806663	19.433333
624.874526	11.053603	19.450000
623.282670	9.363274	19.466667
621.690642	7.929142	19.483333
619.938124	6.556749	19.500000
618.345923	5.380828	19.516667
616.914209	4.150126	19.533333
615.161683	2.788608	19.550000
613.729798	1.813435	19.566667
612.297911	0.840494	19.583333
610.544879	0.233853	19.600000
609.112657	-0.238751	19.616667
607.680601	-0.958235	19.633333
606.409032	-1.734007	19.650000
605.137297	-2.260934	19.666667
603.544748	-2.918177	19.683333
602.112688	-3.631711	19.700000
600.520138	-4.285811	19.716667
598.767263	-5.126530	19.733333
597.495688	-5.892936	19.750000
595.903299	-6.787418	19.766667
594.792210	-7.608297	19.783333
593.039329	-8.440778	19.800000
591.446936	-9.328910	19.816667
589.854541	-10.214801	19.833333
587.780515	-10.681060	19.850000
585.867140	-11.446973	19.866667
583.953601	-11.967652	19.883333
581.879571	-12.428809	19.900000
579.324075	-12.714557	19.916667
575.645156	-12.593089	19.933333
562.015284	-7.910022	19.950000
552.876501	-0.972543	19.966667
561.714405	-3.429947	19.983333
561.886242	-3.244856	20.000000
561.095309	-2.955232	20.016667
563.835454	-4.425951	20.033333
559.032628	-3.173850	20.050000
560.167723	-3.822122	20.066667
557.290924	-3.507289	20.083333
553.932171	-2.290697	20.100000
554.425636	-3.191819	20.116667
548.017596	-0.874375	20.133333
550.597090	-2.043655	20.150000
549.164526	-2.006628	20.166667
547.731801	-1.727282	20.183333
549.188359	-3.216612	20.200000
543.904227	-2.029651	20.216667
542.311012	-1.691783	20.233333
538.791932	-0.658447	20.250000
537.680183	-0.494259	20.266667
538.494461	-1.266757	20.283333
535.938475	-0.822004	20.300000
536.271448	-1.661197	20.316667
532.752691	-1.108834	20.333333
529.394099	-0.132432	20.350000
530.208376	-0.903590	20.366667
527.331411	-0.341337	20.383333
526.219662	-0.176027	20.400000
525.589701	-0.665137	20.416667
522.231269	0.071898	20.433333
523.366684	-1.053950	20.450000
518.884991	-0.150122	20.466667
517.131286	0.247939	20.483333
516.822141	-0.115296	20.500000
514.426641	0.275476	20.516667
514.920099	-0.616427	20.533333
511.722315	-0.174103	20.550000
509.166325	0.275778	20.566667
508.696690	-0.027934	20.583333
505.177767	0.770478	20.600000
506.152531	-0.054664	20.616667
503.275723	0.273978	20.633333
501.843313	0.081242	20.650000
501.694814	-0.574947	20.666667
497.854913	0.341368	20.683333
497.064298	0.155856	20.700000
494.829443	0.255138	20.716667
492.915407	0.476366	20.733333
492.766906	-0.177534	20.750000
489.729606	0.213438	20.766667
488.457365	0.440604	20.783333
487.025112	0.015465	20.800000
484.950585	0.296491	20.816667
483.838991	0.229637	20.833333
482.406578	0.042802	20.850000
480.332209	0.088680	20.866667
478.257840	0.135162	20.883333
475.701688	0.827890	20.900000
475.392695	0.236769	20.916667
472.997189	0.636229	20.933333
473.169504	0.107279	20.950000
472.058224	-0.427497	20.966667
468.539453	0.144417	20.983333
467.106879	0.197094	21.000000
464.551041	0.421752	21.016667
462.797332	0.825762	21.033333
462.648825	0.180376	21.050000
459.611362	0.814868	21.066667
459.623344	0.112360	21.083333
456.586037	0.513649	21.100000
455.474596	0.218740	21.116667
454.042020	0.274092	21.133333
452.128134	0.270514	21.150000
450.695715	0.093301	21.166667
448.781672	0.323955	21.183333
446.225673	0.787214	21.200000
444.953741	0.553314	21.216667
443.039698	0.784938	21.233333
442.570054	0.494052	21.250000
440.816655	0.435774	21.266667
439.223744	0.319993	21.283333
437.630833	0.204796	21.300000
435.877587	-0.083456	21.316667
432.679631	0.615278	21.333333
431.247053	0.675180	21.350000
429.974963	0.677246	21.366667
429.344983	0.215972	21.383333
427.110114	0.336363	21.400000
425.035579	0.630041	21.416667
424.245109	0.228409	21.433333
422.010240	0.350402	21.450000
420.738148	0.354573	21.466667
419.305876	-0.043161	21.483333
416.107918	0.659306	21.500000
415.156803	0.548288	21.516667
412.600800	1.018828	21.533333
411.810174	0.850211	21.550000
411.501169	0.278020	21.566667
409.908405	-0.057715	21.583333
408.154999	-0.105358	21.600000
404.636214	0.487172	21.616667
403.203632	0.553060	21.633333
400.647626	1.026251	21.650000
399.856999	0.860089	21.666667
398.584905	0.868636	21.683333
398.115408	0.358562	21.700000
396.522640	0.028258	21.716667
394.769384	-0.242871	21.733333
391.410933	0.523478	21.750000
389.978500	0.364849	21.766667
388.064449	0.608426	21.783333
386.471375	0.735941	21.800000
385.038790	0.805556	21.816667
383.927334	0.532345	21.833333
381.852945	0.608764	21.850000
382.346378	-0.245098	21.866667
378.667098	0.414302	21.883333
377.716130	0.085203	21.900000
374.518317	0.571300	21.916667
372.604263	0.818132	21.933333
371.492654	0.774283	21.950000
370.702022	0.614306	21.966667
368.627630	0.694895	21.983333
367.997638	0.252288	22.000000
365.281289	0.566858	22.016667
365.293252	-0.107433	22.033333
361.774608	0.274916	22.050000
360.502658	0.067604	22.066667
357.465179	0.725289	22.083333
355.550973	1.199781	22.100000
355.241806	0.868260	22.116667
354.290834	0.546086	22.133333
353.500349	0.166252	22.150000
352.228548	-0.261699	22.166667
349.191217	0.174946	22.183333
346.474864	0.495762	22.200000
344.560806	0.748805	22.216667
342.486259	1.060359	22.233333
342.498069	0.615131	22.250000
340.423670	0.704827	22.266667
339.472694	0.387433	22.283333
338.040400	0.023356	22.300000
335.484533	0.289742	22.316667
334.533556	-0.025758	22.333333
331.496222	0.416585	22.350000
328.779717	0.964266	22.366667
328.631035	0.580142	22.383333
326.235508	1.011869	22.400000
326.568441	0.232610	22.416667
324.333550	0.386082	22.433333
322.419636	0.423624	22.450000
320.987189	0.286951	22.466667
318.431466	0.338703	22.483333
316.838382	0.481521	22.500000
315.405934	0.346593	22.516667
313.170894	0.723189	22.533333
313.022357	0.122991	22.550000
309.022084	0.922137	22.566667
309.354866	0.367269	22.583333
307.280461	0.468005	22.600000
304.885077	0.685919	22.616667
304.415560	0.204917	22.633333
302.341153	0.307418	22.650000
299.945768	0.527113	22.666667
299.315761	0.106098	22.683333
295.315339	1.127831	22.700000
295.969098	0.459040	22.716667
294.055324	0.288290	22.733333
292.301747	0.494849	22.750000
292.153351	-0.315804	22.766667
289.116007	0.141098	22.783333
287.362575	0.132075	22.800000
284.164741	0.648532	22.816667
282.571507	1.015233	22.833333
282.904431	0.249385	22.850000
279.546107	0.825593	22.866667
279.878886	0.276813	22.883333
277.804618	0.171594	22.900000
275.248738	0.457951	22.916667
275.100337	-0.345519	22.933333
270.458099	0.700650	22.950000
270.148776	0.602230	22.966667
268.074362	0.715759	22.983333
265.678681	1.376093	23.000000
266.493069	0.440165	23.016667
264.258308	0.398984	23.033333
262.825849	0.281243	23.050000
262.035488	-0.283360	23.066667
258.035203	0.533989	23.083333
257.084066	0.456720	23.100000
253.404759	1.158405	23.116667
252.774456	1.178435	23.133333
253.107374	0.421756	23.150000
251.032956	0.541160	23.166667
250.242592	-0.018664	23.183333
248.007826	-0.052118	23.200000
244.809841	0.690478	23.216667
244.179823	0.286999	23.233333
239.858555	1.226919	23.250000
240.512165	0.781358	23.266667
239.400820	0.342584	23.283333
236.684301	0.911841	23.300000
237.177846	-0.109355	23.316667
234.782587	-0.078480	23.333333
233.350120	-0.186043	23.350000
229.831296	0.466200	23.366667
226.793656	1.365131	23.383333
227.126568	0.616508	23.400000
225.212633	0.686121	23.416667
224.101002	0.674446	23.433333
223.310771	-0.083798	23.450000
220.112782	0.664817	23.466667
220.606322	-0.349092	23.483333
216.124560	0.658345	23.500000
215.012928	0.648729	23.516667
213.419968	0.605575	23.533333
211.185052	0.796713	23.550000
210.394397	0.671269	23.566667
209.764371	0.279059	23.583333
207.208476	0.588621	23.600000
207.541523	-0.361262	23.616667
203.220386	0.384601	23.633333
202.750708	0.144290	23.650000
199.713483	0.424212	23.666667
197.959752	0.859660	23.683333
197.650702	0.354492	23.700000
195.415782	0.551298	23.716667
194.625263	0.222598	23.733333
193.192927	-0.078408	23.750000
189.352976	0.911443	23.766667
189.525391	0.233673	23.783333
186.488023	0.725735	23.800000
186.178970	0.224459	23.816667
185.067471	0.016072	23.833333
181.869751	0.362814	23.850000
181.239719	-0.019670	23.866667
177.720881	0.651010	23.883333
176.288128	0.972178	23.900000
176.300051	0.357101	23.916667
173.262680	0.853756	23.933333
173.756070	0.064315	23.950000
171.521281	0.065347	23.966667
169.607470	-0.049582	23.983333
167.051565	0.274357	24.000000
164.174544	0.919636	24.016667
163.544508	0.542597	24.033333
161.791048	0.575622	24.050000
160.358429	0.695467	24.066667
159.889017	0.058333	24.083333
157.975202	-0.051251	24.100000
156.382229	-0.074262	24.116667
154.468413	-0.182073	24.133333
150.467966	0.876244	24.150000
150.319259	0.530402	24.166667
147.442101	1.381680	24.183333
148.256463	0.483181	24.200000
147.305580	0.027295	24.216667
144.268472	0.131901	24.233333
142.675496	0.113493	24.250000
140.761541	0.212728	24.266667
138.045006	0.806038	24.283333
136.612518	0.730649	24.300000
134.056471	1.266112	24.316667
134.870696	0.572471	24.333333
132.957008	0.273704	24.350000
131.685008	0.142029	24.366667
130.092163	-0.071697	24.383333
127.375893	0.125460	24.400000
125.301445	0.288651	24.416667
123.387486	0.393868	24.433333
119.868369	1.483164	24.450000
120.201124	0.968167	24.466667
118.768632	0.898873	24.483333
119.101521	0.185909	24.500000
118.150761	-0.454555	24.516667
114.953152	-0.273466	24.533333
112.236877	-0.068853	24.550000
109.520337	0.531771	24.566667
107.124774	1.015521	24.583333
106.333972	1.111045	24.600000
105.382944	0.870754	24.616667
105.234362	0.338081	24.633333
103.962619	-0.177454	24.650000
101.567319	-0.084881	24.666667
99.492996	-0.108476	24.683333
95.974139	0.592337	24.700000
94.862488	0.610620	24.716667
92.627544	0.843634	24.733333
91.515761	1.058180	24.750000
91.688155	0.412889	24.766667
90.576765	0.041722	24.783333
89.144526	-0.406210	24.800000
86.107264	-0.071781	24.816667
83.230361	0.399551	24.833333
80.834924	0.695628	24.850000
79.402162	1.028941	24.866667
77.969531	1.168170	24.883333
78.463029	0.216249	24.900000
76.870167	0.027429	24.916667
75.116815	-0.101764	24.933333
73.202974	-0.171321	24.950000
70.326067	0.304916	24.966667
67.770138	0.664479	24.983333
65.374569	1.158637	25.000000
65.065359	0.890704	25.016667
64.274811	0.606545	25.033333
63.002923	0.306717	25.050000
62.052013	-0.109434	25.066667
59.817189	-0.055376	25.083333
57.421746	0.249794	25.100000
54.865942	0.422967	25.116667
52.470371	0.920575	25.133333
51.037734	1.066479	25.150000
50.247055	0.977983	25.166667
49.937971	0.523032	25.183333
49.629142	-0.312262	25.200000

46.591994	-0.148611	25.216667
44.999122	-0.321665	25.233333
41.480250	0.400061	25.250000
38.763698	1.018482	25.266667
37.491549	1.109037	25.283333
36.700867	1.023795	25.300000
35.910312	0.749677	25.316667
35.922329	-0.006231	25.333333
33.848112	-0.186785	25.350000
32.094872	-0.483182	25.366667
29.378570	-0.237848	25.383333
25.378101	0.853792	25.400000
24.105950	0.947778	25.416667
22.673309	1.100726	25.433333
22.364092	0.842985	25.450000
22.376105	0.093383	25.466667
20.462372	-0.137750	25.483333
19.029980	-0.356775	25.500000
14.869270	0.423412	25.516667
13.436752	0.392688	25.533333
10.720320	0.832319	25.550000
9.448041	1.116020	25.566667
10.262497	0.078604	25.583333
8.348634	0.040507	25.600000
6.595260	-0.055322	25.616667
5.162739	-0.082489	25.633333
1.965084	0.167181	25.650000
0.050971	0.502460	25.666667
