Thu Nov 07 14:12:58 2013

Number of Points = 1533
Depth (nm)	Load (µN)	Time (s)
-6.063842	0.074301	0.000000
-6.859285	-0.194106	0.016667
-6.371191	-0.370237	0.033333
-6.846033	-0.194106	0.050000
-6.999896	-0.135395	0.066667
-7.153760	-0.076685	0.083333
-8.591662	0.638958	0.100000
-7.461737	0.415303	0.116667
-6.492175	0.063050	0.133333
-6.325060	0.004341	0.150000
-5.676477	-0.230494	0.166667
-6.632786	0.121759	0.183333
-5.984203	-0.113077	0.200000
-6.459045	0.063050	0.216667
-7.415480	0.602675	0.233333
-6.124940	0.133009	0.250000
-5.957824	0.074301	0.266667
-5.309367	0.026907	0.283333
-4.981636	-0.277948	0.300000
-6.258925	0.191717	0.316667
-5.610341	-0.043115	0.333333
-6.245672	0.191717	0.350000
-6.239298	0.566645	0.366667
-5.109121	-0.031800	0.383333
-5.744452	0.203030	0.400000
-4.453912	-0.266629	0.416667
-5.089368	0.155698	0.433333
-5.403595	0.085615	0.450000
-5.236480	0.026907	0.466667
-5.711573	0.578078	0.483333
-5.062990	0.343254	0.500000
-4.895874	0.284548	0.516667
-4.728759	0.225842	0.533333
-3.919812	0.119932	0.550000
-4.715507	0.225842	0.566667
-4.708881	0.225842	0.583333
-4.702380	0.413458	0.600000
-4.535265	0.354753	0.616667
-3.886808	0.307609	0.633333
-4.201034	0.237342	0.650000
-4.354897	0.296047	0.666667
-3.866929	0.307609	0.683333
-4.341771	0.483723	0.700000
-3.853803	0.495345	0.716667
-4.007540	0.366314	0.733333
-3.680062	0.436642	0.750000
-3.352457	0.319234	0.766667
-3.987788	0.554049	0.783333
-3.499820	0.565733	0.800000
-3.493320	0.753587	0.816667
-3.326078	0.507030	0.833333
-2.677495	0.272219	0.850000
-3.312826	0.507030	0.866667
-2.503754	0.213516	0.883333
-2.818106	0.330922	0.900000
-3.293074	0.694885	0.916667
-2.965469	0.577481	0.933333
-3.279948	0.882798	0.950000
-2.791854	0.706693	0.966667
-2.143271	0.471887	0.983333
-2.297134	0.530589	1.000000
-2.130018	0.471887	1.016667
-3.086454	1.012068	1.033333
-2.758975	1.082698	1.050000
-2.431371	0.965298	1.066667
-2.103892	1.035990	1.083333
-1.776161	0.730498	1.100000
-1.930151	0.977291	1.116667
-1.602546	0.859893	1.133333
-1.916898	0.977291	1.150000
-2.070888	1.224141	1.166667
-1.422305	0.989347	1.183333
-1.415679	0.989347	1.200000

-1.569542	1.048046	1.216667
-1.241937	0.930649	1.233333
-1.716905	1.294955	1.250000
-1.068322	1.060163	1.266667
-1.382800	1.365829	1.283333
-1.055196	1.248435	1.300000
-0.727591	1.131041	1.316667
-1.363048	1.554158	1.333333
-0.554102	1.449066	1.350000
-0.707965	1.507762	1.366667
-0.701213	1.319372	1.383333
-0.373608	1.201980	1.400000
-0.367109	1.390371	1.416667
-0.199993	1.331675	1.433333
-0.353856	1.390371	1.450000
-0.507846	1.637515	1.466667
0.140737	1.402736	1.483333
-0.334104	1.578820	1.500000
-0.006500	1.461430	1.516667
0.000000	1.649939	1.533333
1.289908	2.123835	1.550000
1.135792	2.560311	1.566667
2.104466	3.532292	1.583333
3.554607	4.331153	1.600000
5.325468	5.396118	1.616667
7.417433	6.157804	1.633333
9.188545	6.849462	1.650000
10.638677	7.661400	1.666667
12.409656	8.551048	1.683333
14.020144	9.503199	1.700000
15.630499	10.652266	1.716667
17.240981	11.612590	1.733333
19.172439	12.459514	1.750000
20.943405	13.368932	1.766667
22.714369	14.282213	1.783333
24.164351	15.316569	1.800000
26.095668	16.374935	1.816667
27.706134	17.358869	1.833333
29.316597	18.346656	1.850000
31.248037	19.221134	1.866667
32.858628	20.018772	1.883333
34.468951	21.216000	1.900000
36.079404	22.219214	1.916667
37.850344	23.167727	1.933333
39.621282	24.120108	1.950000
41.552706	25.017814	1.966667
43.002794	25.894298	1.983333
44.613369	26.715204	2.000000
46.223673	27.942230	2.016667
47.834108	28.971982	2.033333
49.604894	30.149693	2.050000
51.375814	31.129137	2.066667
53.146730	32.112453	2.083333
54.917644	33.099642	2.100000
56.367577	34.207675	2.116667
58.138623	34.997608	2.133333
59.428063	36.171350	2.150000
61.198829	37.379460	2.166667
62.809102	38.650913	2.183333
64.579862	39.868784	2.200000
66.350618	41.091540	2.216667
68.121510	42.111111	2.233333
69.892539	42.926071	2.250000
71.503078	43.802442	2.266667
72.792496	45.007947	2.283333
74.563097	46.461815	2.300000
76.333835	47.711193	2.316667
78.104570	48.965461	2.333333
79.875302	50.224618	2.350000
81.485683	51.335000	2.366667
83.256694	52.178409	2.383333
84.545950	53.625737	2.400000
86.156180	54.961187	2.416667
87.605775	56.573933	2.433333
89.376200	58.290689	2.450000
91.307398	59.525701	2.466667
93.399082	60.707294	2.483333
94.849096	61.694519	2.500000
96.459452	62.843071	2.516667
97.909171	64.271015	2.533333
99.519375	65.645524	2.550000
101.289919	67.184959	2.566667
103.220948	68.672136	2.583333
104.670800	69.901196	2.600000
106.601969	71.179247	2.616667
108.212452	72.137843	2.633333
109.501512	73.878610	2.650000
111.111545	75.508863	2.666667
112.881914	77.309086	2.683333
114.331301	79.233040	2.700000
115.941171	81.106015	2.716667
117.872015	82.869833	2.733333
119.321537	84.590745	2.750000
121.412860	86.310290	2.766667
122.702037	87.876022	2.783333
124.311733	90.010003	2.800000
125.760781	92.438172	2.816667
127.691290	94.701979	2.833333
129.301121	96.634382	2.850000
130.750150	99.091307	2.866667
132.520305	101.211724	2.883333
133.969321	103.688073	2.900000
135.739308	106.058324	2.916667
137.509133	108.671380	2.933333
139.118617	111.120737	2.950000
140.727938	113.814473	2.966667
142.497897	116.226784	2.983333
144.267850	118.649234	3.000000
145.716500	121.671183	3.016667
147.165301	124.468957	3.033333
148.934912	127.400844	3.050000
150.704514	130.346189	3.066667
152.795246	132.948892	3.083333
154.404826	135.255401	3.100000
156.174889	137.512614	3.116667
157.784295	140.078736	3.133333
159.233369	142.469817	3.150000
161.003251	144.997508	3.166667
162.291496	147.953646	3.183333
164.221688	150.689952	3.200000
165.830894	153.553766	3.216667
167.600747	156.124353	3.233333
169.370594	158.705099	3.250000
170.819289	161.660303	3.266667
172.588954	164.511593	3.283333
174.198290	167.182137	3.300000
175.968108	169.805035	3.316667
177.898240	172.632174	3.333333
179.668382	174.771005	3.350000
181.277861	177.228118	3.366667
182.727016	179.497703	3.383333
184.175825	182.283777	3.400000
185.945262	185.475539	3.416667
187.554545	188.225721	3.433333
189.163476	191.500359	3.450000
191.093894	193.899086	3.466667
192.703329	196.421845	3.483333
194.312585	199.212651	3.500000
196.082497	201.695828	3.516667
197.531426	204.302938	3.533333
199.461639	207.007452	3.550000
201.071044	209.575012	3.566667
202.680267	212.414307	3.583333
204.450325	214.678584	3.600000
205.899047	217.594223	3.616667
207.508251	220.462454	3.633333
209.117270	223.606935	3.650000
211.047436	226.381234	3.666667
212.817287	228.955618	3.683333
214.265975	231.922032	3.700000
216.196302	234.457043	3.716667
217.484669	237.230638	3.733333
219.253952	240.652326	3.750000
221.023772	243.273058	3.766667
222.632914	246.232070	3.783333
224.402356	249.416828	3.800000
226.011668	252.123222	3.816667
227.781095	255.329915	3.833333
229.390579	257.779891	3.850000
230.999688	260.789033	3.866667
232.287629	264.199807	3.883333
234.217701	267.115408	3.900000
235.826416	270.712689	3.916667
238.077450	273.535704	3.933333
239.365922	276.152756	3.950000
240.974990	279.223787	3.966667
242.583862	282.586480	3.983333
243.871561	286.357796	4.000000
245.801014	290.197008	4.016667
247.570349	293.540371	4.033333
249.018700	297.009927	4.050000
251.108996	300.262576	4.066667
252.396843	303.812879	4.083333
254.326442	307.433905	4.100000
256.096124	310.260539	4.116667
257.223266	314.191577	4.133333
259.152840	317.850598	4.150000
260.761428	321.637356	4.166667
262.690788	325.615405	4.183333
264.299750	328.844682	4.200000
265.587335	332.785214	4.216667
267.355981	337.157224	4.233333
268.803838	341.365021	4.250000
270.732949	345.713765	4.266667
272.662448	349.484962	4.283333
274.110673	353.142268	4.300000
276.040154	356.939740	4.316667
277.488363	360.621498	4.333333
279.257338	364.502129	4.350000
280.865816	368.453201	4.366667
282.313798	372.474661	4.383333
284.564413	375.921997	4.400000
285.852296	379.417851	4.416667
287.460127	384.336189	4.433333
289.389741	387.935298	4.450000
290.837677	392.023594	4.466667
292.767274	395.647285	4.483333
294.215400	399.453035	4.500000
295.663103	403.889813	4.516667
297.752955	407.804638	4.533333
299.201264	411.336989	4.550000
300.969914	415.702856	4.566667
302.899672	419.088069	4.583333
304.347958	422.653421	4.600000
306.277702	426.059183	4.616667
307.404999	429.758153	4.633333
309.173605	434.189775	4.650000
311.103114	437.945830	4.666667
312.229750	442.632581	4.683333
314.319088	447.314719	4.700000
315.767107	451.280105	4.716667
317.536093	455.144374	4.733333
319.465559	458.964082	4.750000
320.913986	462.320169	4.766667
322.682950	466.218423	4.783333
324.291417	470.184971	4.800000
325.899224	475.138248	4.816667
327.989356	478.636089	4.833333
329.437967	481.716580	4.850000
331.046404	485.729779	4.866667
332.494565	489.483034	4.883333
334.102325	494.506152	4.900000
335.871003	498.830298	4.916667
337.478963	503.555252	4.933333
339.408110	507.851320	4.950000
341.016718	511.608129	4.966667
342.303898	516.154502	4.983333
344.071859	521.549366	5.000000
345.840256	526.292583	5.016667
347.769581	530.322300	5.033333
349.538863	533.745776	5.050000
350.826224	538.022094	5.066667
353.076501	541.973755	5.083333
354.043098	546.046350	5.100000
355.650726	551.266648	5.116667
357.258342	556.504376	5.133333
359.187381	560.962512	5.150000
361.116180	565.777738	5.166667
362.885634	568.943345	5.183333
364.493903	573.206811	5.200000
365.941908	577.192371	5.216667
367.388978	582.574514	5.233333
368.836036	587.974054	5.250000
371.085519	593.111734	5.266667
372.533256	597.497228	5.283333
374.462447	601.727147	5.300000
376.070656	606.080634	5.316667
377.518133	610.853906	5.333333
379.126089	615.585022	5.350000
380.894285	620.628003	5.366667
382.502222	625.387317	5.383333
384.270399	630.460394	5.400000
386.199530	634.779874	5.416667
387.807679	639.222641	5.433333
389.095085	643.430260	5.450000
391.184439	648.088315	5.466667
392.632318	652.262443	5.483333
393.918978	657.584900	5.500000
396.008063	662.645052	5.516667
397.455432	667.580129	5.533333
399.223522	672.781519	5.550000
400.992091	677.269211	5.566667
402.599675	682.555257	5.583333
404.207494	687.490369	5.600000
405.975544	692.751078	5.616667
407.422857	697.769826	5.633333
409.191135	702.691462	5.650000
410.798669	708.052252	5.666667
412.727166	713.317922	5.683333
414.174441	718.393095	5.700000
416.103168	723.316065	5.716667
417.711413	727.615876	5.733333
419.319149	732.675003	5.750000
421.087111	738.068078	5.766667
422.695332	742.402781	5.783333
423.981814	747.989631	5.800000
426.070467	753.694429	5.816667
427.517669	758.878925	5.833333
429.285326	764.727101	5.850000
430.892996	769.885644	5.866667
432.661143	775.002826	5.883333
434.268537	780.571675	5.900000
436.036665	785.717208	5.916667
437.483810	790.986446	5.933333
439.411889	796.875829	5.950000
440.698528	802.229164	5.966667
442.627105	807.376465	5.983333
444.073952	813.090690	6.000000
446.162735	818.600977	6.016667
447.610084	823.565608	6.033333
449.217650	828.878512	6.050000
450.824944	834.597246	6.066667
452.592714	840.276778	6.083333
454.200251	845.632630	6.100000
455.807515	851.397132	6.116667
457.575784	856.330776	6.133333
459.183028	862.124531	6.150000
461.111501	867.426868	6.166667
462.558505	872.906893	6.183333
464.165986	878.345991	6.200000
465.933676	884.144628	6.216667
467.701625	889.557542	6.233333
469.308809	895.441012	6.250000
470.915982	901.340067	6.266667
472.683902	906.796060	6.283333
474.130839	912.374740	6.300000
475.898197	918.670245	6.316667
477.666360	923.762402	6.333333
478.951964	930.661173	6.350000
481.201020	936.435418	6.366667
482.648184	941.677409	6.383333
484.255825	946.877050	6.400000
485.862908	952.911733	6.416667
487.630466	958.907767	6.433333
489.237250	965.387211	6.450000
491.005342	970.586575	6.466667
492.612939	975.852171	6.483333
494.541222	981.437580	6.500000
495.827551	987.253358	6.516667
497.595330	992.920476	6.533333
499.363379	998.182582	6.550000
500.649119	1004.878067	6.566667
502.736996	1011.741767	6.583333
504.344531	1017.099941	6.600000
505.791006	1023.369364	6.616667
507.719497	1028.645338	6.633333
509.165952	1034.944068	6.650000
511.415112	1040.563463	6.666667
512.702203	1045.241447	6.683333
514.309403	1051.101320	6.700000
515.916019	1057.830923	6.716667
517.362138	1064.631935	6.733333
519.128929	1071.773080	6.750000
521.056770	1078.017950	6.766667
522.663919	1083.953959	6.783333
524.753096	1088.876992	6.800000
526.040126	1093.645365	6.816667
527.646959	1100.052678	6.833333
529.093295	1106.529253	6.850000
530.538744	1114.330859	6.866667
532.626707	1121.064848	6.883333
534.233789	1127.100109	6.900000
536.322024	1133.428093	6.916667
537.608411	1139.158533	6.933333
539.215169	1145.676432	6.950000
541.142888	1152.103155	6.966667
542.428654	1158.759212	6.983333
544.356650	1164.773252	7.000000
546.124449	1170.409571	7.016667
547.570970	1176.610432	7.033333
549.338453	1182.718473	7.050000
551.106227	1188.392757	7.066667
552.552420	1195.082600	7.083333
554.480361	1201.178964	7.100000
555.605261	1208.455965	7.116667
557.371487	1216.440963	7.133333
559.299093	1223.036912	7.150000
560.906021	1229.301319	7.166667
562.673425	1235.526484	7.183333
564.280030	1242.273873	7.200000
565.886624	1249.036948	7.216667
567.814792	1254.795334	7.233333
569.261188	1261.182782	7.250000
571.189030	1267.425234	7.266667
572.636024	1272.920692	7.283333
574.403364	1279.241994	7.300000
576.010210	1285.630027	7.316667
577.456251	1292.547200	7.333333
579.062456	1299.890743	7.350000
580.668027	1308.181222	7.366667
582.755975	1314.938355	7.383333
584.363082	1320.936329	7.400000
585.808755	1328.401350	7.416667
587.735559	1336.194685	7.433333
589.342323	1342.704360	7.450000
590.787962	1350.221393	7.466667
593.036963	1356.078967	7.483333
594.001758	1362.841236	7.500000
596.250425	1369.197235	7.516667
597.696974	1375.355542	7.533333
599.304319	1380.998616	7.550000
601.071185	1388.026846	7.566667
602.517390	1394.698895	7.583333
604.123111	1402.765450	7.600000
605.889625	1410.320690	7.616667
607.335156	1417.998275	7.633333
609.262453	1425.055958	7.650000
610.869092	1431.752214	7.666667
612.635560	1439.375465	7.683333
614.402340	1446.532795	7.700000
615.687979	1453.377692	7.716667
617.454088	1461.536797	7.733333
619.220510	1469.229085	7.750000
620.987246	1476.451480	7.766667
622.754626	1482.712542	7.783333
624.200701	1489.579125	7.800000
625.967736	1496.355642	7.816667
627.573948	1503.689277	7.833333
629.179820	1511.530955	7.850000
630.785679	1519.390381	7.866667
632.552012	1527.215743	7.883333
634.318664	1534.563560	7.900000
636.086303	1540.438565	7.916667
637.692785	1547.369800	7.933333
639.138105	1555.362619	7.950000
640.904383	1563.269808	7.966667
642.510164	1571.246455	7.983333
644.277089	1578.187124	8.000000
645.883184	1585.695274	8.016667
647.810237	1593.116133	8.033333
649.256502	1599.699692	8.050000
651.023051	1607.201803	8.066667
652.789928	1614.214057	8.083333
654.075343	1621.394522	8.100000
655.680697	1630.008734	8.116667
657.446863	1638.082775	8.133333
659.212675	1646.684415	8.150000
660.979158	1654.284412	8.166667
662.745974	1661.388582	8.183333
664.352296	1668.557946	8.200000
666.119781	1674.663221	8.216667
667.243943	1683.040750	8.233333
669.330309	1692.160093	8.250000
670.936245	1699.905284	8.266667
672.863832	1706.529372	8.283333
674.470443	1713.267795	8.300000
676.076698	1720.537468	8.316667
677.522110	1728.392076	8.333333
679.448965	1736.109651	8.350000
680.894007	1744.517889	8.366667
682.821540	1751.222273	8.383333
684.106428	1759.189936	8.400000
685.872405	1767.545782	8.416667
687.638722	1775.393603	8.433333
689.405029	1783.257313	8.450000
690.850357	1791.238301	8.466667
692.616997	1798.604969	8.483333
694.383627	1805.985652	8.500000
696.150603	1812.849827	8.516667
697.435764	1820.409339	8.533333
699.362494	1828.312872	8.550000
701.129444	1835.216312	8.566667
702.735544	1842.716590	8.583333
704.502478	1849.645372	8.600000
705.787951	1856.737659	8.616667
707.232102	1866.475785	8.633333
709.318894	1874.958549	8.650000
710.603256	1883.710881	8.666667
712.689661	1892.769688	8.683333
714.295328	1900.917048	8.700000
716.222678	1907.895848	8.716667
717.668568	1915.037486	8.733333
719.113358	1923.822498	8.750000
720.718619	1932.575197	8.766667
722.483986	1941.841614	8.783333
724.410556	1949.984109	8.800000
726.177366	1957.096923	8.816667
727.623200	1964.321942	8.833333
729.711329	1970.809955	8.850000
730.997033	1977.558235	8.866667
732.442106	1985.920378	8.883333
734.046911	1995.352906	8.900000
735.972300	2005.259237	8.916667
737.738304	2013.574270	8.933333
739.505414	2020.239424	8.950000
740.789949	2028.732499	8.966667
742.716406	2037.042707	8.983333
744.321887	2045.468173	9.000000
745.927356	2053.909523	9.016667
747.694049	2061.197251	9.033333
749.138640	2070.278907	9.050000
751.065045	2078.668002	9.066667
752.670095	2087.734939	9.083333
754.436750	2095.078672	9.100000
756.042914	2102.484091	9.116667
757.487829	2111.082252	9.133333
759.575044	2118.932448	9.150000
760.860216	2126.475792	9.166667
762.464060	2137.343363	9.183333
764.230279	2145.338022	9.200000
765.834477	2155.678148	9.216667
767.761157	2163.655498	9.233333
769.206380	2171.794262	9.250000
770.972559	2179.848888	9.266667
772.738728	2187.917613	9.283333
774.183922	2196.098399	9.300000
776.109783	2205.298745	9.316667
777.715440	2213.460479	9.333333
779.320313	2222.792572	9.350000
781.086433	2230.935376	9.366667
782.370318	2240.398890	9.383333
784.456994	2249.055234	9.400000
786.062601	2257.291806	9.416667
787.507325	2266.174107	9.433333
789.433095	2275.510354	9.450000
790.878189	2283.840453	9.466667
792.321704	2294.528544	9.483333
794.087349	2303.380255	9.500000
795.690924	2314.649227	9.516667
797.938387	2322.802241	9.533333
799.384218	2330.031493	9.550000
801.149820	2338.947279	9.566667
802.916205	2346.695262	9.583333
804.362013	2353.959553	9.600000
805.807019	2362.421429	9.616667
807.411701	2372.038122	9.633333
809.176455	2382.220234	9.650000
811.102077	2391.777613	9.666667
812.707523	2400.253955	9.683333
814.795208	2407.403114	9.700000
815.919993	2414.851464	9.716667
817.364128	2424.614800	9.733333
818.968732	2434.348050	9.750000
820.893481	2445.208189	9.766667
822.498059	2454.979542	9.783333
824.424400	2463.464247	9.800000
825.707992	2473.365206	9.816667
828.115352	2482.343125	9.833333
829.079177	2490.552386	9.850000
831.004664	2500.312100	9.866667
832.610399	2508.357535	9.883333
834.214899	2518.245612	9.900000
835.980279	2527.492898	9.916667
837.424684	2536.851344	9.933333
839.189632	2546.743837	9.950000
840.954567	2556.654413	9.966667
842.398939	2566.062700	9.983333
844.646121	2574.633829	10.000000
845.930818	2582.886466	10.016667
847.535227	2592.910405	10.033333
849.300521	2602.286075	10.050000
850.744010	2613.012319	10.066667
852.830244	2622.327655	10.083333
854.435439	2631.178678	10.100000
855.879726	2640.713846	10.116667
857.966764	2648.828922	10.133333
859.412287	2656.520083	10.150000
861.177927	2665.378779	10.166667
862.622594	2674.345611	10.183333
864.227314	2683.906945	10.200000
865.831180	2694.741198	10.216667
867.114071	2705.689292	10.233333
869.198932	2717.054137	10.250000
871.124143	2727.224706	10.266667
872.569170	2735.655359	10.283333
874.494783	2745.225431	10.300000
875.779311	2753.729119	10.316667
877.704053	2764.600520	10.333333
879.148617	2773.722128	10.350000
880.752798	2784.086257	10.366667
882.999320	2793.644010	10.383333
884.284657	2800.939162	10.400000
886.049288	2811.304924	10.416667
887.815624	2819.123931	10.433333
889.098360	2830.302947	10.450000
891.023868	2840.030420	10.466667
892.468354	2849.268681	10.483333
894.072447	2859.764967	10.500000
895.997489	2870.187025	10.516667
897.280596	2880.811745	10.533333
899.205615	2891.270120	10.550000
901.131491	2900.448283	10.566667
902.575043	2911.079007	10.583333
904.339546	2921.635855	10.600000
905.783949	2930.998205	10.616667
907.548866	2940.936050	10.633333
909.474691	2950.190140	10.650000
910.919064	2959.595881	10.666667
913.005790	2968.176901	10.683333
914.290105	2976.999040	10.700000
915.894491	2987.057353	10.716667
917.498867	2997.131743	10.733333
919.102790	3007.881882	10.750000
921.027219	3019.219840	10.766667
922.471523	3028.729226	10.783333
924.074966	3040.195461	10.800000
926.161171	3049.554267	10.816667
927.444074	3060.483724	10.833333
929.369332	3070.584091	10.850000
930.813138	3080.836521	10.866667
932.577894	3091.014512	10.883333
934.503568	3100.494828	10.900000
935.787311	3110.170078	10.916667
937.712067	3121.020046	10.933333
939.156270	3130.680310	10.950000
941.080552	3142.237259	10.966667
943.007528	3149.773349	10.983333
944.291675	3158.846908	11.000000
945.895868	3169.193240	11.016667
947.339118	3180.276753	11.033333
949.264249	3190.566633	11.050000
951.028435	3201.595809	11.066667
952.472104	3212.053362	11.083333
954.235810	3223.798188	11.100000
956.000416	3234.200600	11.116667
957.604531	3244.663803	11.133333
959.369115	3255.098594	11.150000
960.973208	3265.594092	11.166667
962.737771	3276.061270	11.183333
964.503242	3285.172289	11.200000
966.108225	3294.340205	11.216667
967.712739	3304.208452	11.233333
969.317704	3313.402129	11.250000
970.921275	3324.677432	11.266667
972.686239	3334.545102	11.283333
974.290714	3344.471256	11.300000
975.894251	3355.796933	11.316667
977.658721	3366.402994	11.333333
979.262234	3377.764014	11.350000
981.027147	3387.707808	11.366667
982.309679	3399.191007	11.383333
984.233649	3411.214407	11.400000
985.998062	3421.904487	11.416667
987.601516	3433.354398	11.433333
989.526386	3444.034167	11.450000
991.131697	3452.712583	11.466667
992.897009	3462.060577	11.483333
994.341354	3471.508388	11.500000
995.945699	3481.629231	11.516667
997.549561	3492.469547	11.533333
999.314365	3502.576338	11.550000
1000.757728	3513.491514	11.566667
1002.842046	3525.665521	11.583333
1004.447290	3534.444199	11.600000
1005.891096	3544.696865	11.616667
1007.655375	3555.588089	11.633333
1009.259163	3566.538819	11.650000
1010.702462	3577.548920	11.666667
1012.626230	3589.873638	11.683333
1014.229984	3600.874933	11.700000
1015.994207	3611.849371	11.716667
1017.436980	3623.643106	11.733333
1019.361178	3635.326118	11.750000
1021.125848	3645.632285	11.766667
1022.730513	3655.275775	11.783333
1024.657092	3663.404733	11.800000
1025.618859	3674.685830	11.816667
1027.702997	3687.128922	11.833333
1029.146178	3698.315899	11.850000
1030.748369	3711.650669	11.866667
1032.672474	3723.470996	11.883333
1034.437063	3733.898491	11.900000
1036.041164	3744.382869	11.916667
1037.644279	3756.339046	11.933333
1039.087392	3767.626042	11.950000
1040.850472	3780.306134	11.966667
1042.614519	3791.542841	11.983333
1044.378555	3802.795864	12.000000
1045.983085	3812.639816	12.016667
1047.747100	3823.923452	12.033333
1049.512583	3833.016547	12.050000
1051.117087	3842.899027	12.066667
1052.882555	3852.014762	12.083333
1054.326071	3862.701576	12.100000
1055.608603	3874.183655	12.116667
1057.049123	3889.341068	12.133333
1059.294499	3900.609139	12.150000
1060.897454	3912.803402	12.166667
1062.821851	3924.189008	12.183333
1064.265801	3934.227446	12.200000
1065.868722	3946.472401	12.216667
1067.472131	3957.989290	12.233333
1068.753573	3971.100244	12.250000
1070.996864	3985.479632	12.266667
1072.601240	3995.552132	12.283333
1074.526062	4006.304795	12.300000
1076.291402	4015.610703	12.316667
1077.735276	4025.762306	12.333333
1079.820547	4036.514301	12.350000
1081.104936	4045.225394	12.366667
1082.547775	4056.923119	12.383333
1084.151079	4068.595873	12.400000
1085.753359	4081.798523	12.416667
1087.515594	4095.738610	12.433333
1089.279341	4107.424176	12.450000
1090.882089	4119.927091	12.466667
1092.807310	4130.083441	12.483333
1094.090102	4141.177740	12.500000
1095.851761	4155.978606	12.516667
1097.293984	4168.593455	12.533333
1099.056125	4182.675681	12.550000
1101.141258	4193.634069	12.566667
1102.905427	4204.688255	12.583333
1104.510138	4214.261337	12.600000
1106.113812	4225.383040	12.616667
1107.718508	4234.979550	12.633333
1109.321648	4246.898838	12.650000
1110.925810	4257.291141	12.666667
1112.527894	4270.786307	12.683333
1114.452473	4281.900341	12.700000
1115.572582	4296.328617	12.716667
1117.657096	4308.210905	12.733333
1119.582163	4318.596468	12.750000
1121.025791	4329.114966	12.766667
1122.628844	4341.162854	12.783333
1123.910411	4354.086481	12.800000
1125.992780	4369.170837	12.816667
1127.274320	4382.134132	12.833333
1129.196705	4396.522321	12.850000
1131.281653	4407.757588	12.866667
1132.564734	4418.421119	12.883333
1134.489712	4428.938521	12.900000
1135.933253	4439.587497	12.916667
1137.696683	4451.744843	12.933333
1139.299097	4464.746668	12.950000
1140.903086	4475.398234	12.966667
1142.667014	4486.813369	12.983333
1144.430931	4498.243016	13.000000
1145.552934	4509.844389	13.016667
1147.797198	4522.771587	13.033333
1149.079124	4535.158454	13.050000
1151.002412	4548.200179	13.066667
1152.444792	4560.581419	13.083333
1154.046034	4575.332073	13.100000
1156.130295	4587.592892	13.116667
1157.733652	4599.187703	13.133333
1159.014974	4612.475527	13.150000
1161.259678	4624.747093	13.166667
1162.380501	4638.109324	13.183333
1164.464705	4650.453790	13.200000

1166.068549	4661.322049	13.216667
1167.510829	4673.852191	13.233333
1169.435066	4685.476550	13.250000
1171.038883	4696.385393	13.266667
1172.481132	4708.961565	13.283333
1174.404798	4721.438734	13.300000
1176.007501	4734.009224	13.316667
1177.770669	4746.557769	13.333333
1179.213419	4758.387225	13.350000
1180.815545	4771.818941	13.366667
1182.578680	4784.416773	13.383333
1184.019760	4798.737636	13.400000
1185.941706	4813.781209	13.416667
1187.865828	4825.578069	13.433333
1189.630012	4836.609289	13.450000
1191.234810	4846.053114	13.466667
1192.517004	4858.041486	13.483333
1194.118488	4872.431252	13.500000
1195.880985	4885.981796	13.516667
1197.804495	4898.690124	13.533333
1200.057774	4898.162532	13.550000
1199.268088	4889.300667	13.566667
1198.810350	4863.947809	13.583333
1197.553488	4833.931842	13.600000
1196.299849	4799.104555	13.616667
1194.565252	4763.691943	13.633333
1192.669557	4729.247267	13.650000
1191.095278	4694.031977	13.666667
1189.520379	4659.740668	13.683333
1187.624453	4625.640494	13.700000
1186.049403	4591.576607	13.716667
1183.829701	4561.769676	13.733333
1182.572795	4531.817733	13.750000
1180.835995	4499.693414	13.766667
1179.259072	4468.423599	13.783333
1177.521608	4437.291710	13.800000
1175.945606	4404.647895	13.816667
1173.886528	4374.580551	13.833333
1172.307770	4346.049177	13.850000
1170.247005	4318.500706	13.866667
1169.148526	4291.568446	13.883333
1167.089210	4261.855697	13.900000
1165.509711	4234.431483	13.916667
1163.771229	4204.818763	13.933333
1162.352609	4176.753017	13.950000
1160.291000	4150.464235	13.966667
1158.710260	4124.892240	13.983333
1157.129982	4098.630574	14.000000
1155.390192	4070.967892	14.016667
1153.648826	4045.659248	14.033333
1152.228872	4019.585122	14.050000
1150.650406	3990.618551	14.066667
1148.911400	3961.786842	14.083333
1147.493287	3932.965633	14.100000
1145.271724	3905.936162	14.116667
1143.691020	3880.310507	14.133333
1141.948298	3857.025092	14.150000
1140.205533	3833.803055	14.166667
1138.946136	3807.569939	14.183333
1137.366714	3780.031046	14.200000
1135.465294	3754.130186	14.216667
1133.884289	3728.954927	14.233333
1132.142754	3703.897516	14.250000
1129.918760	3680.495683	14.266667
1128.657107	3657.629817	14.283333
1126.914459	3634.232751	14.300000
1125.493207	3610.096994	14.316667
1123.752874	3583.246125	14.333333
1122.492959	3557.786066	14.350000
1120.431552	3531.194221	14.366667
1118.206271	3509.713857	14.383333
1117.265732	3486.527408	14.400000
1115.525124	3460.087816	14.416667
1113.622559	3435.895486	14.433333
1112.040432	3412.394427	14.450000
1109.976349	3389.796682	14.466667
1108.714149	3367.746235	14.483333
1106.810457	3345.237137	14.500000
1105.067200	3322.751339	14.516667
1103.644856	3300.244433	14.533333
1101.901508	3277.892727	14.550000
1100.318595	3255.563839	14.566667
1098.576078	3231.972320	14.583333
1096.993073	3209.781387	14.600000
1095.570960	3186.929901	14.616667
1093.507337	3163.647135	14.633333
1092.084673	3141.618349	14.650000
1090.342364	3117.716056	14.666667
1088.117206	3096.051619	14.683333
1087.336324	3074.049417	14.700000
1085.433384	3050.417704	14.716667
1083.367671	3030.252680	14.733333
1082.265694	3008.542345	14.750000
1080.040755	2986.551616	14.766667
1078.616838	2966.392458	14.783333
1077.194209	2944.310467	14.800000
1074.969131	2922.527445	14.816667
1073.706448	2901.197952	14.833333
1071.480837	2880.209871	14.850000
1070.215442	2862.929453	14.866667
1068.631672	2841.879845	14.883333
1066.886507	2822.240781	14.900000
1065.303083	2800.673941	14.916667
1063.398218	2779.915210	14.933333
1061.812978	2761.059762	14.950000
1060.390330	2739.007914	14.966667
1058.323994	2719.772446	14.983333
1057.220506	2700.317110	15.000000
1054.995312	2678.706100	15.016667
1053.409872	2660.149153	15.033333
1051.985299	2640.969312	15.050000
1050.240989	2620.053903	15.066667
1048.657113	2599.162447	15.083333
1046.751808	2579.061028	15.100000
1045.166168	2560.802321	15.116667
1043.742222	2540.687137	15.133333
1041.515408	2521.494316	15.150000
1040.250614	2503.315893	15.166667
1038.185025	2482.966663	15.183333
1036.437473	2466.889829	15.200000
1035.011675	2449.538305	15.216667
1033.426179	2431.065130	15.233333
1032.001125	2412.603112	15.250000
1030.417175	2391.821766	15.266667
1028.510997	2373.023968	15.283333
1026.764854	2354.843681	15.300000
1025.018672	2336.722394	15.316667
1023.432933	2318.611993	15.333333
1022.008836	2298.721808	15.350000
1020.263329	2279.593309	15.366667
1018.838742	2260.434839	15.383333
1016.771785	2242.127208	15.400000
1015.185838	2224.326063	15.416667
1013.601032	2204.822837	15.433333
1011.372289	2188.509565	15.450000
1009.945142	2173.171684	15.466667
1008.037297	2156.861155	15.483333
1006.449217	2142.244912	15.500000
1005.344494	2124.631416	15.516667
1003.277222	2106.793688	15.533333
1001.850685	2090.546283	15.550000
999.943432	2073.352004	15.566667
998.195857	2057.309364	15.583333
996.769595	2040.650691	15.600000
995.021950	2024.712898	15.616667
993.756856	2006.981942	15.633333
991.850166	1988.947504	15.650000
990.264021	1971.442255	15.666667
988.517727	1953.489523	15.683333
986.770640	1936.718576	15.700000
985.023141	1920.562279	15.716667
983.596944	1903.807503	15.733333
981.688517	1888.365201	15.750000
980.262243	1871.723955	15.766667
978.193629	1855.889727	15.783333
976.605695	1841.054282	15.800000
974.857246	1826.316910	15.816667
973.109129	1811.084172	15.833333
971.681944	1795.802472	15.850000
970.094603	1780.082449	15.866667
968.346021	1765.543930	15.883333
966.758250	1750.466601	15.900000
965.171518	1733.836926	15.916667
963.745229	1717.219087	15.933333
961.677318	1700.335415	15.950000
960.411427	1683.793575	15.966667
958.502854	1668.570412	15.983333
956.755079	1652.826590	16.000000
955.006914	1637.664569	16.016667
953.418847	1623.027967	16.033333
951.349294	1608.595689	16.050000
950.081779	1594.477685	16.066667
948.011812	1580.662907	16.083333
946.261747	1568.337949	16.100000
944.833655	1554.409464	16.116667
942.923051	1542.216930	16.133333
941.493874	1529.908864	16.150000
939.905550	1515.656682	16.166667
938.156368	1502.013782	16.183333
937.049429	1487.707941	16.200000
935.141382	1471.698845	16.216667
933.552917	1457.656940	16.233333
931.643783	1443.270297	16.250000
930.215732	1429.280993	16.266667
928.628159	1413.907415	16.283333
926.718913	1399.687346	16.300000
925.291415	1384.874530	16.316667
923.221938	1370.327954	16.333333
921.472737	1356.712658	16.350000
920.043819	1344.017810	16.366667
917.973257	1331.090810	16.383333
916.383146	1319.505594	16.400000
914.793655	1306.994637	16.416667
913.043971	1294.100168	16.433333
911.775710	1281.096499	16.450000
910.186766	1267.768343	16.466667
908.276818	1254.596261	16.483333
906.526370	1242.843155	16.500000
905.097812	1229.610824	16.516667
903.508420	1216.952143	16.533333
901.919937	1202.936388	16.550000
899.849335	1190.069879	16.566667
898.580813	1177.455640	16.583333
896.831113	1164.584337	16.600000
894.921512	1150.894759	16.616667
893.170818	1139.507835	16.633333
891.580889	1127.651233	16.650000
889.990930	1115.838986	16.666667
888.401550	1103.161837	16.683333
886.491165	1090.642035	16.700000
884.900810	1079.420640	16.716667
882.989457	1068.346841	16.733333
881.880503	1057.048008	16.750000
880.130777	1044.217536	16.766667
878.219932	1032.384298	16.783333
876.629729	1020.935012	16.800000
874.717934	1010.519860	16.816667
872.966600	1000.089421	16.833333
871.696990	989.097986	16.850000
870.106967	977.381043	16.866667
868.677399	965.658043	16.883333
866.766921	953.276967	16.900000
865.016314	941.759945	16.916667
863.265675	930.290594	16.933333
861.353657	920.207671	16.950000
860.083844	909.520534	16.966667
858.493317	898.556901	16.983333
856.581787	887.745465	17.000000
855.151969	876.394459	17.016667
853.401147	865.199035	17.033333
851.649171	855.725890	17.050000
849.898009	845.036116	17.066667
848.146262	835.221844	17.083333
847.037266	823.986492	17.100000
845.125807	813.069796	17.116667
843.214041	802.611432	17.133333
841.462183	792.961289	17.150000
839.710300	783.349179	17.166667
838.440123	773.205618	17.183333
836.849758	761.998513	17.200000
835.098334	751.702220	17.216667
833.347148	741.049097	17.233333
831.434641	731.696568	17.250000
829.843082	722.272796	17.266667
827.930258	713.392929	17.283333
826.659357	704.329236	17.300000
825.067987	694.622563	17.316667
823.316366	684.619653	17.333333
821.724940	674.996509	17.350000
819.973261	665.080380	17.366667
818.220773	656.370305	17.383333
816.468521	647.309353	17.400000
814.394755	639.165232	17.416667
813.123144	631.161344	17.433333
811.852281	622.041466	17.450000
810.100441	612.364451	17.466667
808.991280	601.375940	17.483333
806.597178	592.389468	17.500000
804.683755	584.404212	17.516667
803.252021	575.911468	17.533333
801.338554	567.991945	17.550000
800.067511	559.141179	17.566667
798.154742	550.180175	17.583333
796.883400	541.774391	17.600000
795.291798	532.414881	17.616667
793.218216	523.995534	17.633333
791.786313	515.755510	17.650000
789.712439	507.772543	17.666667
788.280248	499.962853	17.683333
786.688270	491.163349	17.700000
784.774572	483.588786	17.716667
783.181588	476.291327	17.733333
781.588822	468.668207	17.750000
779.675060	461.188642	17.766667
778.563713	453.462283	17.783333
776.329169	445.807718	17.800000
774.896335	438.957251	17.816667
773.303696	431.144856	17.833333
771.550082	424.116607	17.850000
769.957167	416.716382	17.866667
768.364461	409.004197	17.883333
766.932219	401.270821	17.900000
765.018948	393.058322	17.916667
763.104740	386.244787	17.933333
761.832915	378.559743	17.950000
759.918666	371.807561	17.966667
758.325372	364.972453	17.983333
756.571795	357.888627	18.000000
755.138726	351.390097	18.016667
753.385330	344.036022	18.033333
751.470981	337.433280	18.050000
749.716879	331.132481	18.066667
748.123467	324.474481	18.083333
746.208403	318.937536	18.100000
745.096199	312.490145	18.116667
743.342461	305.647223	18.133333
741.588269	299.481287	18.150000
739.994762	292.964348	18.166667
737.919772	286.646171	18.183333
736.486073	281.087331	18.200000
735.052785	274.915168	18.216667
733.298503	268.882781	18.233333
731.704481	263.135532	18.250000
729.950164	257.155288	18.266667
728.195621	251.514325	18.283333
726.762036	245.784250	18.300000
725.007876	239.571435	18.316667
723.253489	233.696696	18.333333
721.177695	228.577430	18.350000
719.904327	223.196259	18.366667
718.310173	217.645063	18.383333
716.394619	212.840137	18.400000
714.800028	207.941232	18.416667
713.205829	202.457834	18.433333
711.611210	197.600336	18.450000
710.177468	192.105974	18.466667
708.262246	186.806550	18.483333
706.828272	181.657860	18.500000
704.752530	176.462666	18.516667
703.318130	171.948999	18.533333
701.723822	166.627627	18.550000
699.647445	162.380163	18.566667
698.213009	157.922060	18.583333
696.778755	153.190531	18.600000
694.863024	148.649884	18.616667
693.268257	144.014660	18.633333
691.512795	139.743837	18.650000
689.917618	135.720082	18.666667
688.162324	131.197612	18.683333
686.727804	126.864963	18.700000
684.972485	122.380630	18.716667
683.377452	118.141184	18.733333
681.782596	113.637735	18.750000
680.027051	109.491562	18.766667
678.271119	105.921876	18.783333
676.515365	102.087260	18.800000
674.759601	98.268183	18.816667
673.164129	94.683986	18.833333
671.729321	90.780268	18.850000
669.652365	87.396394	18.866667
668.217170	84.070654	18.883333
666.461173	80.598456	18.900000
665.186450	77.239893	18.916667
663.430617	73.522722	18.933333
661.674412	70.361943	18.950000
659.918379	66.943466	18.966667
658.162157	63.807376	18.983333
656.405568	61.219155	19.000000
655.130796	57.932665	19.016667
653.053396	55.212069	19.033333
651.939098	51.890927	19.050000
650.182660	49.076609	19.066667
648.265727	46.330162	19.083333
646.509276	43.536447	19.100000
644.591977	41.335654	19.116667
643.156139	38.969451	19.133333
641.720296	36.610609	19.150000
639.963646	34.113837	19.166667
638.206989	31.625851	19.183333
636.771131	29.290450	19.200000
634.853801	27.135421	19.216667
633.096783	25.187990	19.233333
631.500249	23.189002	19.250000
629.903711	21.196131	19.266667
628.307169	19.209373	19.283333
626.710623	17.228730	19.300000
625.274561	15.196467	19.316667
623.838495	13.170297	19.333333
622.241936	11.207970	19.350000
620.163738	9.678148	19.366667
618.406345	8.290427	19.383333
616.809437	6.848887	19.400000
615.373016	5.353503	19.416667
613.776103	3.919838	19.433333
612.179020	2.740864	19.450000
610.581934	1.564925	19.466667
608.824191	0.699795	19.483333
607.226767	0.028761	19.500000
605.789831	-0.698521	19.516667
604.513216	-1.232957	19.533333
603.236766	-2.015248	19.550000
601.960316	-2.795984	19.566667
600.523376	-3.517322	19.583333
598.765457	-4.121401	19.600000
597.649493	-4.955303	19.616667
596.052061	-5.614089	19.633333
594.615117	-6.329162	19.650000
593.499314	-7.405082	19.666667
591.901879	-8.058859	19.683333
590.304772	-9.203021	19.700000
588.707334	-9.853041	19.716667
586.949571	-10.688877	19.733333
585.352295	-11.580355	19.750000
583.434040	-12.353787	19.766667
581.836761	-13.240770	19.783333
579.597362	-13.650037	19.800000
577.197637	-14.243284	19.816667
574.637258	-14.533167	19.833333
571.755901	-14.705562	19.850000
566.948352	-13.695918	19.866667
540.471403	0.237460	19.883333
556.364944	-3.300976	19.900000
554.606030	-2.419797	19.916667
558.945852	-3.983258	19.933333
560.878834	-5.410666	19.950000
558.318131	-5.216091	19.966667
555.757427	-5.020890	19.983333
547.579290	-2.310860	20.000000
548.227708	-2.298892	20.016667
548.715964	-2.716273	20.033333
547.118029	-2.624187	20.050000
547.285470	-3.168945	20.066667
543.280203	-2.207501	20.083333
541.521616	-1.813536	20.100000
541.047102	-2.125943	20.116667
537.844115	-1.210419	20.133333
539.937421	-2.449270	20.150000
535.932316	-1.729266	20.166667
534.815846	-1.808906	20.183333
533.378398	-1.772413	20.200000
528.410035	-0.218754	20.216667
530.342689	-1.156278	20.233333
528.263285	-0.887467	20.250000
526.665348	-0.792192	20.266667
527.154089	-1.933557	20.283333
522.506865	-0.736510	20.300000
522.513815	-1.219636	20.316667
518.829523	-0.369651	20.333333
517.392073	-0.330683	20.350000
516.436090	-0.465311	20.366667
514.677662	-0.309894	20.383333
514.524123	-0.733790	20.400000
512.926345	-0.876507	20.416667
509.884007	-0.256437	20.433333
510.212255	-1.334082	20.450000
505.564867	0.106733	20.466667
505.892793	-0.489542	20.483333
503.492569	-0.339998	20.500000
501.413163	-0.066031	20.516667
501.099133	-0.429535	20.533333
498.538420	-0.220585	20.550000
497.100967	-0.177577	20.566667
496.305631	-0.605436	20.583333
492.781824	0.192069	20.600000
493.591374	-0.814710	20.616667
490.067567	-0.016478	20.633333
489.272069	-0.203828	20.650000
486.871842	-0.049398	20.666667
484.631944	0.285896	20.683333
484.317912	-0.074536	20.700000
482.399151	-0.092692	20.716667
480.480230	0.127562	20.733333
480.808471	-0.939346	20.750000
476.321729	0.209891	20.766667
476.007696	-0.148888	20.783333
472.965511	0.241667	20.800000
471.688544	0.231638	20.816667
470.893044	0.047813	20.833333
468.974280	0.033658	20.850000
467.857960	-0.270031	20.866667
466.260173	-0.399064	20.883333
463.859784	-0.001166	20.900000
461.940861	0.222926	20.916667
460.022095	0.211373	20.933333
458.905615	0.145965	20.950000
458.110271	-0.270881	20.966667
455.549549	-0.048689	20.983333
454.593715	-0.406342	21.000000
450.748925	0.516507	21.016667
449.953264	0.571707	21.033333
449.478896	0.041088	21.050000
447.720617	-0.024543	21.066667
447.406894	-0.846546	21.083333
444.043725	-0.330215	21.100000
441.322198	0.422669	21.116667
440.205872	0.126973	21.133333
437.484345	0.880181	21.150000
438.133240	0.180257	21.166667
436.856581	-0.289769	21.183333
435.258944	-0.642643	21.200000
433.019195	-0.529119	21.216667
429.334890	0.340675	21.233333
427.576139	0.979567	21.250000
426.780789	0.571419	21.266667
425.503816	0.570697	21.283333
426.152865	-0.359307	21.300000
423.431803	-0.301130	21.316667
421.673673	-0.590462	21.333333
417.828877	0.340068	21.350000
416.230925	0.457525	21.366667
415.114285	0.632558	21.383333
414.961042	-0.235420	21.400000
412.079179	0.347810	21.416667
411.444469	-0.344351	21.433333
408.402116	0.297837	21.450000
406.964806	0.128453	21.466667
405.527341	0.190201	21.483333
403.447921	0.484693	21.500000
402.492077	0.142322	21.516667
400.894277	0.033009	21.533333
399.296476	-0.075719	21.550000
397.698675	-0.183864	21.566667
394.335343	0.577586	21.583333
393.539832	0.409210	21.600000
391.620899	0.648037	21.616667
391.146519	0.134725	21.633333
390.351161	-0.261760	21.650000
387.951067	-0.305002	21.666667
385.711308	-0.176839	21.683333
383.792373	0.064004	21.700000
381.070994	0.595884	21.716667
380.596459	0.313916	21.733333
378.196210	0.502063	21.750000
377.079719	0.453360	21.766667
376.765825	-0.113571	21.783333
374.205086	0.134323	21.800000
373.570366	-0.542421	21.816667
370.528160	-0.118628	21.833333
367.806778	0.416329	21.850000
367.011264	0.253502	21.866667
364.289882	0.789032	21.883333
364.296812	0.335846	21.900000
363.020133	-0.104376	21.916667
361.101347	-0.084786	21.933333
359.985005	-0.355535	21.950000
356.942795	0.072551	21.966667
355.023857	0.319499	21.983333
353.426047	0.224893	22.000000
351.828086	0.356131	22.016667
351.995653	-0.377676	22.033333
348.150997	0.344063	22.050000
347.676458	0.068952	22.066667
345.597180	0.151492	22.083333
343.999217	0.284461	22.100000
342.882872	0.018741	22.116667
340.001147	0.393928	22.133333
339.045290	0.071153	22.150000
337.928944	-0.192844	22.166667
334.726091	0.524181	22.183333
334.412188	-0.029947	22.200000
331.690951	0.289847	22.216667
330.253326	0.590671	22.233333
330.581528	-0.418028	22.250000
326.897207	0.475533	22.266667
327.064918	-0.473460	22.283333
324.183190	-0.092629	22.300000
320.659208	0.966279	22.316667
320.987259	0.183149	22.333333
318.266019	0.507181	22.350000
318.273091	-0.158370	22.366667
316.193806	-0.066146	22.383333
313.633054	0.201432	22.400000
313.318999	-0.124713	22.416667
309.634823	0.551663	22.433333
309.481404	-0.053024	22.450000
307.241629	0.100231	22.466667
304.841216	0.532900	22.483333
304.687648	0.150132	22.500000
301.645574	0.375893	22.516667
300.850051	0.226954	22.533333
299.894185	-0.083393	22.550000
296.530984	0.480969	22.566667
297.180008	-0.411013	22.583333
293.495828	0.271123	22.600000
291.898005	0.196208	22.616667
290.300182	0.121872	22.633333
287.418153	0.952117	22.650000
288.548495	0.106407	22.666667
286.469350	-0.010459	22.683333
284.069080	0.208620	22.700000
283.594678	-0.271280	22.716667
279.910642	0.197441	22.733333
278.954626	0.111541	22.750000
276.875332	0.216396	22.766667
274.635404	0.597609	22.783333
275.284423	-0.287819	22.800000
271.760727	0.343415	22.816667
271.286323	-0.132719	22.833333
269.207027	-0.025121	22.850000
266.806609	0.416306	22.866667
266.813670	-0.233292	22.883333
262.648016	0.634112	22.900000
262.654932	0.201735	22.916667
260.575780	0.095990	22.933333
258.014871	0.597665	22.950000
258.663887	-0.282675	22.966667
255.300676	0.295944	22.983333
254.344801	0.000088	23.000000
253.067947	-0.178524	23.016667
250.186203	0.226892	23.033333
248.909348	0.049441	23.050000
246.187948	0.612211	23.066667
245.071439	0.591752	23.083333
245.239128	-0.323724	23.100000
241.875771	0.473566	23.116667
242.203805	-0.284978	23.133333
239.001223	0.027334	23.150000
237.403388	-0.029558	23.166667
236.287163	-0.474186	23.183333
231.960727	0.888657	23.200000
231.967496	0.675587	23.216667
230.369660	0.620464	23.233333
229.253290	0.390790	23.250000
229.420975	-0.517822	23.266667
226.218389	-0.199464	23.283333
223.978595	-0.018378	23.300000
222.541245	-0.128634	23.316667
219.017396	0.732418	23.333333
219.505914	-0.077554	23.350000
216.142553	0.725814	23.366667
216.149463	0.303174	23.383333
215.354209	-0.249407	23.400000
212.311967	0.227419	23.416667
211.356223	-0.265010	23.433333
208.153491	0.271628	23.450000
206.555508	0.435037	23.466667
206.402068	-0.137116	23.483333
203.038705	0.669489	23.500000
203.366731	-0.076976	23.516667
200.164137	0.252716	23.533333
199.208250	-0.025111	23.550000
197.128939	0.106590	23.566667
195.209976	0.389473	23.583333
193.933109	0.230023	23.600000
192.977360	-0.254379	23.616667
189.293017	0.672463	23.633333
189.620901	0.138726	23.650000
186.739281	0.357590	23.666667
186.906675	-0.116989	23.683333
184.346033	-0.013464	23.700000
182.748185	-0.052030	23.716667
180.669009	-0.122040	23.733333
178.429066	0.281724	23.750000
176.349611	0.627315	23.766667
176.196025	0.271725	23.783333
173.956220	0.469501	23.800000
174.444867	-0.532518	23.816667
170.600308	0.044902	23.833333
169.483924	-0.164446	23.850000
166.120555	0.651278	23.866667
165.164523	0.590259	23.883333
164.208628	0.323790	23.900000
162.931892	-0.030639	23.916667
161.013061	0.055055	23.933333
160.217791	-0.473071	23.950000
157.336025	-0.035139	23.966667
155.738034	0.140186	23.983333
153.337735	0.403674	24.000000
151.579118	0.842568	24.016667
151.425802	0.083755	24.033333
150.149062	-0.264650	24.050000
148.390854	-0.436574	24.066667
145.830063	-0.111476	24.083333
143.269272	0.214227	24.100000
141.831632	0.537444	24.116667
141.517689	0.044866	24.133333
138.635918	0.488970	24.150000
138.643088	-0.322236	24.166667
136.242784	-0.052306	24.183333
134.966039	-0.393684	24.200000
131.281821	0.345775	24.216667
129.844316	0.468463	24.233333
128.567299	0.532889	24.250000
127.932374	0.161805	24.266667
126.174025	0.200965	24.283333
126.020836	-0.747047	24.300000
122.176261	-0.146372	24.316667
121.220356	-0.397610	24.333333
117.696489	0.488922	24.350000
116.900804	0.581059	24.366667
115.302941	0.565151	24.383333
115.310104	-0.235785	24.400000
112.749306	0.100904	24.416667
112.114644	-0.663804	24.433333
107.627841	0.576562	24.450000
108.116202	0.002019	24.466667
104.913579	0.376140	24.483333
104.759982	0.036552	24.500000
102.841271	-0.056276	24.516667
100.280470	0.284728	24.533333
98.522114	0.333490	24.550000
97.566204	0.089975	24.566667
95.005268	0.630810	24.583333
95.975360	-0.512548	24.600000
92.612243	-0.073381	24.616667
91.977310	-0.431636	24.633333
88.614191	0.009358	24.650000
86.053123	0.749565	24.666667
85.097210	0.510005	24.683333
83.820186	0.584963	24.700000
84.148318	-0.319009	24.716667
82.390221	-0.656631	24.733333
78.545500	0.161152	24.750000
77.910563	-0.192446	24.766667
74.707799	0.392151	24.783333
74.233220	0.176642	24.800000
72.474988	0.039392	24.816667
70.074538	0.527934	24.833333
69.600089	0.118338	24.850000
67.520878	0.100583	24.866667
65.441535	0.278438	24.883333
64.806596	-0.070700	24.900000
62.085296	0.342792	24.916667
61.610974	-0.257908	24.933333
58.889803	-0.036862	24.950000
56.328732	0.707453	24.966667
56.335877	-0.066915	24.983333
53.453956	0.601657	25.000000
54.103057	-0.405805	25.016667
50.418948	0.170916	25.033333
48.820940	0.371717	25.050000
48.186126	-0.164201	25.066667
44.822865	0.490130	25.083333
44.829877	-0.086549	25.100000
43.392615	-0.326770	25.116667
39.708374	0.446846	25.133333
40.999299	-0.597266	25.150000
36.512611	0.470833	25.166667
36.038154	0.073051	25.183333
34.119421	0.012827	25.200000

31.718964	0.511085	25.216667
31.886591	-0.310301	25.233333
29.165282	0.115681	25.250000
27.406909	0.190223	25.266667
26.290620	-0.159349	25.283333
23.248332	0.385945	25.300000
22.773871	-0.007048	25.316667
20.534029	0.246013	25.333333
19.096632	0.206233	25.350000
18.301319	-0.256749	25.366667
14.777561	0.467754	25.383333
14.784566	-0.098370	25.400000
12.063380	0.145448	25.416667
10.465366	0.355791	25.433333
10.312007	-0.338048	25.450000
6.467268	0.507030	25.466667
6.474271	-0.056184	25.483333
5.036997	-0.277948	25.500000
1.673725	0.392998	25.516667
2.001831	-0.472847	25.533333
