Thu Nov 07 14:20:30 2013

Number of Points = 1507
Depth (nm)	Load (µN)	Time (s)
-3.713043	-0.627158	0.000000
-3.705513	-0.440016	0.016667
-5.463239	0.205806	0.033333
-4.974241	0.216867	0.050000
-6.411115	0.932507	0.066667
-4.638203	0.474012	0.083333
-2.704676	-0.230494	0.100000
-3.338977	0.004341	0.116667
-2.849728	-0.359106	0.133333
-4.607455	0.286700	0.150000
-4.760414	0.532721	0.166667
-3.789823	0.180468	0.183333
-3.782293	0.367842	0.200000
-3.293044	0.004341	0.216667
-2.964410	-0.113077	0.233333
-4.080304	0.485258	0.250000
-3.109839	0.320444	0.266667
-3.904630	0.613982	0.283333
-2.773549	0.203030	0.300000
-2.444789	-0.101823	0.316667
-2.597623	-0.043115	0.333333
-2.429478	-0.101823	0.350000
-3.063905	0.320444	0.366667
-3.537718	0.496567	0.383333
-3.048720	0.507938	0.400000
-3.041064	0.507938	0.416667
-1.589005	-0.020422	0.433333
-1.902328	0.096991	0.450000
-2.055162	0.155698	0.466667
-2.368485	0.273111	0.483333
-3.323890	0.812901	0.500000
-2.995382	0.883099	0.516667
-2.345769	0.648278	0.533333
-1.696282	0.601132	0.550000
-0.244098	-0.114889	0.566667
-1.199378	0.237342	0.583333
-1.031233	0.178637	0.600000
-2.307491	0.648278	0.616667
-2.941919	1.070768	0.633333
-1.971327	0.718541	0.650000
-1.803308	0.847568	0.666667
-0.832717	0.495345	0.683333
-0.343594	0.319234	0.700000
-0.496427	0.377938	0.716667
-0.649135	0.248905	0.733333
-1.604541	0.788864	0.750000
-1.436522	0.917951	0.766667
-0.947399	0.741842	0.783333
-1.260848	1.047098	0.800000
-0.129767	0.636183	0.816667
-0.443216	0.941499	0.833333
-0.274945	0.694885	0.850000
0.214178	0.518778	0.866667
-0.259634	0.694885	0.883333
0.069000	0.577481	0.900000
-0.244323	0.694885	0.916667
-0.236793	0.882798	0.933333
0.252330	0.706693	0.950000
-0.381971	0.941499	0.966667
0.267641	0.706693	0.983333
0.275171	0.894666	1.000000
0.443316	0.835966	1.016667
0.771950	0.718564	1.033333
0.137523	1.141398	1.050000
0.305667	1.082698	1.066667
0.634301	0.965298	1.083333
0.000000	1.200098	1.100000
1.612044	1.365829	1.116667
2.100789	1.754905	1.133333
3.231111	2.475977	1.150000
4.361431	3.199209	1.166667
5.651986	4.245115	1.183333
7.263516	5.177496	1.200000

8.874916	6.304356	1.216667
11.128398	7.010258	1.233333
12.900409	7.896022	1.250000
14.351311	9.095059	1.266667
16.765403	9.561843	1.283333
17.895579	10.500744	1.300000
19.667580	11.401464	1.316667
21.279220	12.170777	1.333333
22.730108	13.390350	1.350000
24.662460	14.438926	1.366667
26.113341	15.668205	1.383333
28.206307	16.471964	1.400000
29.817804	17.455393	1.416667
31.429297	18.442675	1.433333
33.522255	19.258066	1.450000
35.133876	20.055266	1.466667
36.584873	21.112223	1.483333
37.875245	22.430337	1.500000
39.647081	23.577617	1.516667
41.579537	24.471405	1.533333
43.511857	25.569368	1.550000
44.962974	26.446234	1.566667
46.574309	27.669950	1.583333
48.346400	28.436514	1.600000
49.957730	29.668901	1.616667
51.729681	30.644918	1.633333
53.341004	31.886510	1.650000
55.112949	32.870738	1.666667
56.724403	33.917329	1.683333
58.175228	35.230946	1.700000
59.947028	36.432463	1.716667
61.879451	37.374645	1.733333
63.651383	38.379177	1.750000
65.102473	39.297857	1.766667
66.553283	40.633667	1.783333
68.324929	42.065153	1.800000
69.936360	43.144548	1.816667
71.547510	44.645293	1.833333
73.479914	45.616523	1.850000
74.930848	46.766887	1.866667
76.702476	48.224860	1.883333
78.313894	49.325490	1.900000
79.925167	50.641310	1.916667
81.696926	51.903620	1.933333
83.308051	53.441648	1.950000
85.240435	54.442912	1.966667
86.691349	55.623160	1.983333
88.462952	57.118480	2.000000
89.913717	58.521927	2.016667
91.685456	59.813559	2.033333
93.296559	61.384069	2.050000
94.907803	62.744340	2.066667
96.679387	64.267955	2.083333
98.130134	65.696835	2.100000
100.062054	67.391553	2.116667
101.512794	68.831255	2.133333
103.284069	70.816707	2.150000
104.734507	72.707416	2.166667
106.506066	74.268327	2.183333
108.277325	76.277530	2.200000
110.048875	77.851685	2.216667
111.659932	79.490104	2.233333
113.110347	81.415759	2.250000
114.721096	83.514144	2.266667
116.171501	85.454936	2.283333
117.781937	88.020149	2.300000
119.392517	90.371044	2.316667
121.324068	92.615702	2.333333
122.934787	94.759332	2.350000
124.705988	96.853438	2.366667
125.995564	99.359510	2.383333
127.926935	101.872879	2.400000
129.537475	104.283658	2.416667
130.987364	106.993975	2.433333
132.758223	109.599796	2.450000
134.368585	112.275422	2.466667
136.299918	114.846632	2.483333
137.910579	117.076471	2.500000
139.681407	119.727554	2.516667
141.613033	121.860042	2.533333
143.063187	124.175254	2.550000
144.834313	126.383074	2.566667
146.444784	128.895803	2.583333
147.894760	131.476630	2.600000
149.505057	134.249437	2.616667
151.436324	136.918055	2.633333
152.886117	139.772266	2.650000
154.656879	142.522317	2.666667
156.267308	145.098865	2.683333
158.038055	147.871573	2.700000
159.969447	150.353380	2.716667
161.580184	152.470225	2.733333
163.351075	155.028687	2.750000
164.961801	157.161419	2.766667
166.733010	159.243594	2.783333
168.343560	161.639058	2.800000
169.953938	164.292093	2.816667
171.564643	166.455947	2.833333
173.335832	168.569293	2.850000
174.946527	170.747740	2.866667
176.556881	173.436715	2.883333
178.327885	175.825650	2.900000
179.777737	178.591898	2.916667
181.388070	181.310525	2.933333
182.998226	184.294023	2.950000
184.769034	186.975997	2.966667
186.540179	189.155661	2.983333
188.310974	191.856437	3.000000
189.921619	194.109727	3.016667
191.371598	196.686271	3.033333
193.142375	199.415219	3.050000
194.753004	201.692374	3.066667
196.523942	204.179634	3.083333
198.134386	206.733203	3.100000
199.744649	209.557355	3.116667
201.676058	212.013804	3.133333
203.126172	214.388364	3.150000
204.415439	217.355814	3.166667
206.346298	220.632988	3.183333
208.116838	223.715407	3.200000
209.887727	226.276477	3.216667
211.498301	228.636563	3.233333
213.108510	231.539720	3.250000
214.879382	234.126879	3.266667
216.329090	237.107079	3.283333
217.938918	240.580469	3.300000
219.870258	243.139130	3.316667
221.480616	245.821384	3.333333
223.251457	248.454908	3.350000
224.540826	251.269352	3.366667
226.311104	254.742165	3.383333
228.081558	257.953592	3.400000
229.852188	260.901138	3.416667
231.462322	263.916232	3.433333
233.233125	266.606999	3.450000
234.361595	270.091584	3.466667
236.452988	273.244065	3.483333
237.741931	276.694843	3.500000
239.672631	280.208769	3.516667
241.443400	282.949529	3.533333
242.731942	286.999024	3.550000
244.502318	290.325981	3.566667
246.272685	293.664762	3.583333
247.882176	297.642043	3.600000
249.813206	300.663345	3.616667
251.102085	304.209907	3.633333
253.032717	307.826907	3.650000
254.642556	311.283583	3.666667
256.091705	315.098158	3.683333
258.182992	318.407976	3.700000
259.632513	321.667340	3.716667
261.241930	325.754274	3.733333
262.851532	329.564081	3.750000
264.300441	333.737827	3.766667
266.231001	337.461556	3.783333
267.840575	341.312865	3.800000
269.610431	345.416856	3.816667
271.220384	348.702183	3.833333
272.669245	352.948005	3.850000
274.599759	356.739624	3.866667
276.209288	360.658657	3.883333
277.979297	364.534349	3.900000
279.910188	367.763992	3.916667
281.359608	371.174469	3.933333
283.129794	374.784358	3.950000
284.578996	378.519743	3.966667
286.188475	382.514741	3.983333
288.119124	386.104207	4.000000
289.889278	389.762337	4.016667
291.659836	392.818136	4.033333
292.948717	396.360695	4.050000
294.718642	400.360542	4.066667
296.488973	403.754907	4.083333
297.777417	407.950216	4.100000
299.707804	411.932346	4.116667
301.477903	415.672634	4.133333
302.766321	419.907652	4.150000
304.696891	423.615859	4.166667
306.306267	427.763858	4.183333
307.915634	431.925426	4.200000
309.524779	436.417097	4.216667
311.294615	440.550164	4.233333
313.064228	445.015220	4.250000
314.673985	448.594428	4.266667
316.283092	453.144010	4.283333
318.213594	456.954037	4.300000
319.662625	460.945330	4.316667
321.432407	465.158251	4.333333
323.041909	469.117644	4.350000
324.811891	473.032503	4.366667
326.260890	477.072006	4.383333
328.030637	481.336686	4.400000
329.639669	485.998346	4.416667
331.409617	489.963250	4.433333
332.858362	494.381397	4.450000
334.788561	498.644266	4.466667
336.397997	502.702794	4.483333
338.167912	506.716949	4.500000
339.616622	511.187662	4.516667
341.064876	516.338305	4.533333
342.994805	521.003558	4.550000
344.443485	525.517699	4.566667
346.212907	530.269143	4.583333
347.821830	535.092201	4.600000
349.591005	540.212600	4.616667
351.681823	544.221513	4.633333
352.970197	548.522704	4.650000
354.739796	553.008140	4.666667
356.188641	557.277824	4.683333
357.636560	562.928813	4.700000
359.565928	568.431361	4.716667
361.496206	572.575479	4.733333
363.265757	577.132757	4.750000
364.875508	580.721322	4.766667
366.324301	585.068138	4.783333
367.772386	590.470108	4.800000
369.541669	595.428942	4.816667
371.150454	600.459126	4.833333
373.241160	604.636051	4.850000
374.690380	608.345392	4.866667
376.780835	612.896787	4.883333
378.069318	617.034587	4.900000
379.517570	622.188451	4.916667
381.287024	626.891470	4.933333
382.895743	632.019629	4.950000
384.825187	637.408738	4.966667
386.595091	641.440197	4.983333
388.043533	646.310105	5.000000
389.813181	650.723056	5.016667
391.101118	655.674908	5.033333
392.869782	661.557257	5.050000
394.799648	666.316841	5.066667
396.248043	671.256710	5.083333
398.017404	676.099205	5.100000
399.465781	681.066345	5.116667
401.395120	686.612425	5.133333
403.164451	691.497802	5.150000
404.613046	696.140033	5.166667
406.542600	701.365058	5.183333
408.151912	705.608044	5.200000
409.439748	710.712440	5.216667
411.530009	715.553821	5.233333
412.817825	720.685490	5.250000
414.586344	726.784046	5.266667
416.355602	731.779887	5.283333
417.964112	737.219630	5.300000
419.733099	742.619702	5.316667
421.342346	746.960100	5.333333
422.950827	752.443595	5.350000
424.720038	757.508884	5.366667
426.168012	763.077631	5.383333
428.257923	768.441516	5.400000
429.545901	773.333634	5.416667
431.475561	778.399634	5.433333
433.405726	782.713275	5.450000
434.693936	787.257352	5.466667
436.463343	792.031330	5.483333
438.071996	797.257769	5.500000
439.519635	803.325807	5.516667
441.127750	809.356408	5.533333
442.896339	815.349654	5.550000
444.344205	821.080637	5.566667
446.112771	827.107977	5.583333
447.881588	832.761368	5.600000
449.811145	837.983151	5.616667
451.258968	843.776354	5.633333
453.188505	849.026572	5.650000
454.636574	854.454737	5.666667
456.405871	859.391154	5.683333
458.335115	865.078731	5.700000
459.944175	869.697767	5.716667
461.552962	874.725715	5.733333
463.322226	879.711041	5.750000
464.770510	884.817554	5.766667
466.539759	889.826890	5.783333
467.827270	895.413836	5.800000
469.435206	901.711312	5.816667
471.042859	908.430413	5.833333
472.811529	914.304491	5.850000
474.901160	920.085354	5.866667
476.349381	925.285736	5.883333
477.957534	931.259198	5.900000
479.726162	937.193900	5.916667
481.013047	943.716995	5.933333
483.102627	949.575275	5.950000
484.711013	955.200451	5.966667
486.479876	960.785118	5.983333
488.409770	965.502551	6.000000
489.697435	970.861435	6.016667
491.306064	976.123865	6.033333
492.753363	982.700308	6.050000
494.521343	989.603109	6.066667
496.289590	996.107490	6.083333
497.897619	1002.264466	6.100000
499.826892	1007.908937	6.116667
501.595952	1013.200417	6.133333
503.044031	1018.611962	6.150000
504.812509	1024.772691	6.166667
506.421057	1030.155956	6.183333
508.029028	1036.400013	6.200000
509.637274	1042.234321	6.216667
511.245511	1048.082396	6.233333
513.013366	1055.172104	6.250000
514.621869	1060.622248	6.266667
516.389988	1067.317927	6.283333
517.998185	1073.224741	6.300000
519.605796	1080.007432	6.316667
521.374459	1085.889890	6.333333
522.982628	1091.839863	6.350000
524.750982	1098.183804	6.366667
526.519618	1104.108634	6.383333
527.967272	1110.154512	6.400000
529.414332	1117.087403	6.416667
531.503910	1122.948344	6.433333
532.950948	1129.914461	6.450000
534.880020	1135.858499	6.466667
536.327921	1141.536442	6.483333
537.935708	1148.055484	6.500000
539.864456	1154.483352	6.516667
541.151548	1160.697318	6.533333
542.758709	1168.150811	6.550000
544.526343	1175.570722	6.566667
546.615831	1181.564799	6.583333
548.063668	1187.338797	6.600000
549.671982	1193.071554	6.616667
551.279686	1199.714075	6.633333
553.047564	1206.768980	6.650000
554.334276	1213.550166	6.666667
556.262011	1221.490215	6.683333
558.030156	1228.146215	6.700000
559.959081	1234.310947	6.716667
561.567634	1239.686198	6.733333
563.015390	1245.580422	6.750000
564.944289	1251.784078	6.766667
566.231542	1257.756238	6.783333
567.838224	1265.925841	6.800000
569.927270	1272.580299	6.816667
571.374673	1279.001826	6.833333
572.982551	1285.384273	6.850000
574.590111	1292.242676	6.866667
576.357835	1299.527133	6.883333
578.286966	1305.384222	6.900000
579.734321	1311.876630	6.916667
581.020870	1318.901395	6.933333
582.948723	1326.664852	6.950000
584.555593	1334.553529	6.966667
586.162763	1341.992897	6.983333
588.090892	1349.344797	7.000000
589.859155	1355.824932	7.016667
591.467240	1361.899610	7.033333
593.075000	1368.459118	7.050000
594.682751	1375.032477	7.066667
596.129690	1382.146731	7.083333
597.897269	1389.647449	7.100000
599.825960	1396.160320	7.116667
601.433992	1402.314431	7.133333
603.201860	1409.384951	7.150000
604.970680	1415.033507	7.166667
606.418202	1421.277118	7.183333
608.025878	1427.961424	7.200000
609.151122	1436.261947	7.216667
610.917645	1445.339655	7.233333
613.005770	1453.368892	7.250000
614.291458	1461.678690	7.266667
616.540041	1469.695774	7.283333
618.148304	1475.504184	7.300000
619.434610	1482.891452	7.316667
621.523329	1490.034435	7.333333
622.648800	1497.995217	7.350000
624.737168	1505.662047	7.366667
626.665699	1512.414328	7.383333
628.434727	1517.753626	7.400000
629.882448	1523.699246	7.416667
631.169015	1530.696102	7.433333
632.935367	1540.029409	7.450000
634.864184	1546.354820	7.466667
636.310872	1553.842636	7.483333
638.239003	1561.191119	7.500000
639.525186	1568.762085	7.516667
641.131992	1576.745956	7.533333
642.738113	1585.750805	7.550000
644.665863	1593.669172	7.566667
646.433453	1601.153256	7.583333
647.880064	1608.756138	7.600000
649.808457	1615.714831	7.616667
651.737519	1621.674771	7.633333
653.024296	1628.358060	7.650000
654.791837	1635.915467	7.666667
656.238741	1643.082303	7.683333
658.005920	1651.180428	7.700000
659.612945	1658.836594	7.716667
661.380444	1666.457320	7.733333
662.987448	1674.145105	7.750000
665.076239	1681.181263	7.766667
666.202460	1688.023589	7.783333
667.808743	1696.787390	7.800000
669.575843	1705.003153	7.816667
671.182447	1713.287815	7.833333
672.949871	1721.020402	7.850000
674.556104	1729.859575	7.866667
676.805656	1736.431330	7.883333
678.253478	1742.226868	7.900000
679.700244	1749.598381	7.916667
681.467618	1757.405439	7.933333
682.752827	1766.429648	7.950000
684.679958	1775.270552	7.966667
686.447651	1782.602571	7.983333
687.893306	1791.632430	8.000000
689.821462	1798.944466	8.016667
691.268156	1806.422492	8.033333
693.035454	1814.343514	8.050000
694.642258	1822.331003	8.066667
696.409534	1830.283786	8.083333
698.177157	1837.719239	8.100000
699.302478	1845.904741	8.116667
701.389974	1854.873647	8.133333
703.157925	1861.818610	8.150000
704.603462	1871.024888	8.166667
706.692723	1877.359034	8.183333
708.139681	1884.443961	8.200000
709.906875	1892.519985	8.216667
711.032124	1900.812881	8.233333
712.797845	1911.088058	8.250000
714.724760	1920.251454	8.266667
716.171305	1927.953113	8.283333
717.937712	1937.203450	8.300000
719.866053	1944.239605	8.316667
720.990869	1953.178809	8.333333
723.078573	1961.835761	8.350000
724.524700	1970.161592	8.366667
726.452266	1978.353482	8.383333
728.380929	1984.908942	8.400000
729.827765	1992.176206	8.416667
731.273852	2000.560599	8.433333
733.040154	2009.968373	8.450000
734.485476	2019.495695	8.466667
736.734317	2027.127257	8.483333
737.860140	2034.564274	8.500000
739.787249	2043.437408	8.516667
741.233646	2051.360400	8.533333
742.518051	2061.584703	8.550000
744.765715	2070.973267	8.566667
746.211703	2079.506174	8.583333
747.978270	2088.518637	8.600000
749.745957	2095.858232	8.616667
751.191157	2105.566874	8.633333
753.279034	2113.966814	8.650000
754.243899	2122.161473	8.666667
756.491858	2131.110642	8.683333
757.937390	2140.324166	8.700000
759.543011	2150.075947	8.716667
761.309484	2159.227895	8.733333
763.236811	2167.777029	8.750000
765.004412	2175.246151	8.766667
766.451422	2182.252362	8.783333
768.058140	2190.368422	8.800000
769.663691	2200.224167	8.816667
771.431257	2207.745890	8.833333
772.877075	2216.531916	8.850000
774.483365	2225.284915	8.866667
776.088869	2235.212108	8.883333
778.014936	2245.642093	8.900000
779.460319	2255.077894	8.916667
781.387138	2264.385426	8.933333
783.315117	2271.960960	8.950000
784.761249	2280.278983	8.966667
786.206587	2289.781294	8.983333
788.133754	2298.569561	9.000000
789.418980	2307.568016	9.016667
791.666696	2316.879501	9.033333
792.952295	2325.321588	9.050000
794.879419	2334.173985	9.066667
796.808511	2340.087893	9.083333
798.094084	2348.569282	9.100000
799.700612	2356.967958	9.116667
800.985370	2366.664377	9.133333
802.589089	2379.256121	9.150000
804.836713	2388.704250	9.166667
806.443197	2397.169308	9.183333
808.209352	2406.796085	9.200000
809.977501	2413.446773	9.216667
811.262590	2422.648906	9.233333
812.868633	2431.770843	9.250000
814.473860	2442.112053	9.266667
816.400441	2451.774748	9.283333
818.166932	2460.899701	9.300000
819.772930	2470.088543	9.316667
821.540211	2478.034314	9.333333
822.986114	2486.694458	9.350000
824.752564	2495.880565	9.366667
826.358930	2504.522026	9.383333
827.803579	2515.053337	9.400000
829.569178	2525.509458	9.416667
831.496475	2534.103539	9.433333
833.101978	2544.031826	9.450000
834.708291	2552.751147	9.466667
836.315006	2560.870260	9.483333
837.920064	2571.462710	9.500000
839.686416	2580.795102	9.516667
841.292276	2590.190904	9.533333
843.379984	2598.842533	9.550000
844.666104	2606.506611	9.566667
846.271519	2616.566589	9.583333
847.716024	2627.312899	9.600000
849.481062	2638.607280	9.616667
851.567883	2648.583126	9.633333
853.174084	2657.469716	9.650000
854.941594	2665.073128	9.666667
856.226815	2674.080130	9.683333
857.831308	2685.515314	9.700000
859.918493	2694.947578	9.716667
861.364164	2703.954458	9.733333
863.130365	2713.511735	9.750000
865.219209	2720.468009	9.766667
866.505217	2728.298955	9.783333
868.271815	2737.265140	9.800000
869.396054	2747.065676	9.816667
871.161357	2757.964418	9.833333
872.927072	2768.247811	9.850000
874.693201	2777.912739	9.866667
876.459320	2787.593783	9.883333
877.904465	2797.383878	9.900000
879.508796	2809.062254	9.916667
881.434932	2819.388776	9.933333
883.201864	2827.854866	9.950000
884.807447	2837.664689	9.966667
886.413881	2846.203618	9.983333
888.019011	2856.687996	10.000000
889.785475	2865.853407	10.016667
891.391449	2875.079193	10.033333
892.996979	2884.966368	10.050000
894.762980	2894.823538	10.066667
896.690755	2902.703420	10.083333
898.136646	2911.382012	10.100000
899.421611	2920.769657	10.116667
901.347616	2931.291267	10.133333
902.952211	2942.575781	10.150000
904.556792	2953.880510	10.166667
906.482759	2964.458801	10.183333
908.249552	2973.132937	10.200000
909.856296	2981.208449	10.216667
911.301672	2990.655590	10.233333
912.906636	3001.388516	10.250000
914.672068	3012.093967	10.266667
916.438374	3021.496135	10.283333
918.044189	3030.958054	10.300000
919.810031	3041.051252	10.316667
921.415827	3050.542499	10.333333
923.021614	3060.047934	10.350000
924.788316	3068.856926	10.366667
926.554118	3079.010799	10.383333
928.160323	3087.891739	10.400000
929.605592	3097.498310	10.416667
931.370915	3108.366689	10.433333
933.137123	3117.913160	10.450000
934.581913	3128.235021	10.466667
936.347652	3138.482821	10.483333
938.113831	3148.073901	10.500000
939.557685	3159.790837	10.516667
941.645255	3168.648486	10.533333
943.090444	3178.374013	10.550000
944.695650	3188.745549	10.566667
946.300392	3199.810949	10.583333
947.904666	3211.573331	10.600000
949.830797	3221.906771	10.616667
951.597806	3230.258870	10.633333
953.042935	3240.074105	10.650000
954.809014	3249.814336	10.666667
956.414603	3259.613401	10.683333
957.858328	3271.524496	10.700000
959.784856	3281.265851	10.716667
961.229016	3292.527659	10.733333
963.316003	3302.255176	10.750000
964.762446	3310.109660	10.766667
966.528456	3319.951737	10.783333
968.294920	3329.118150	10.800000
969.579936	3338.429691	10.816667
971.183586	3351.124294	10.833333
972.788149	3362.455328	10.850000
974.552714	3374.454555	10.866667
976.318198	3385.083883	10.883333
977.923190	3395.773408	10.900000
980.009611	3406.347332	10.916667
981.294091	3416.459023	10.933333
982.737168	3429.337043	10.950000
984.984033	3439.918031	10.966667
986.268482	3450.076847	10.983333
988.354847	3460.733297	11.000000
989.800226	3470.174837	11.016667
991.565612	3480.949198	11.033333
993.332404	3489.625477	11.050000
995.099188	3498.312639	11.066667
996.544534	3507.804000	11.083333
997.990346	3516.600574	11.100000
999.595205	3527.488618	11.116667
1001.199104	3539.811197	11.133333
1002.642511	3552.197427	11.150000
1004.565910	3566.608742	11.166667
1006.492156	3576.771390	11.183333
1007.935999	3588.505039	11.200000
1009.701746	3598.741424	11.216667
1011.467962	3608.276756	11.233333
1012.911772	3620.059740	11.250000
1014.837488	3631.014469	11.266667
1016.282237	3641.396002	11.283333
1018.207931	3652.382355	11.300000
1020.135544	3660.504307	11.316667
1021.419787	3670.969670	11.333333
1023.507381	3679.791582	11.350000
1024.471134	3689.646330	11.366667
1026.396295	3701.427966	11.383333
1028.000487	3713.313296	11.400000
1029.765145	3725.174274	11.416667
1031.530765	3735.600016	11.433333
1032.974930	3746.852815	11.450000
1034.740042	3758.036837	11.466667
1036.666599	3767.735520	11.483333
1037.628808	3779.892590	11.500000
1039.874343	3792.460737	11.516667
1041.157975	3803.837705	11.533333
1042.922048	3816.571551	11.550000
1044.687092	3827.856215	11.566667
1046.452619	3838.421455	11.583333
1048.379107	3848.222420	11.600000
1049.985618	3856.645361	11.616667
1051.109206	3867.418072	11.633333
1053.194166	3880.170967	11.650000
1054.478211	3890.932912	11.666667
1056.403164	3903.024147	11.683333
1058.008145	3913.732809	11.700000
1059.612119	3925.942276	11.716667
1061.698513	3936.556341	11.733333
1062.983505	3945.903108	11.750000
1064.586948	3958.907281	11.766667
1066.352356	3969.648859	11.783333
1067.634316	3983.521844	11.800000
1069.718649	3997.210052	11.816667
1071.163068	4008.085112	11.833333
1073.248381	4020.311620	11.850000
1074.854769	4028.919266	11.866667
1076.459637	4039.795119	11.883333
1078.065001	4049.931373	11.900000
1079.669345	4061.589868	11.916667
1080.951710	4074.858777	11.933333
1083.196926	4087.901485	11.950000
1084.802250	4098.096727	11.966667
1086.567534	4109.022431	11.983333
1088.173859	4117.724263	12.000000
1089.456165	4131.080757	12.016667
1091.220400	4143.573139	12.033333
1092.823123	4157.650562	12.050000
1095.069276	4169.295625	12.066667
1096.675558	4178.060713	12.083333
1098.119819	4189.172484	12.100000
1099.885023	4200.217327	12.116667
1101.490256	4210.549714	12.133333
1103.093935	4223.199894	12.150000
1105.020103	4233.479115	12.166667
1106.303838	4244.703032	12.183333
1108.067961	4257.362590	12.200000
1109.511635	4269.348853	12.216667
1111.597206	4281.190254	12.233333
1113.202373	4291.620399	12.250000
1114.325062	4303.733885	12.266667
1116.087567	4318.808002	12.283333
1118.172572	4331.494678	12.300000
1119.455180	4344.400033	12.316667
1121.701681	4355.524825	12.333333
1122.985835	4366.123513	12.350000
1124.750888	4377.396222	12.366667
1126.354929	4389.505430	12.383333
1127.797959	4402.453955	12.400000
1130.043359	4415.222188	12.416667
1131.327466	4425.891299	12.433333
1133.252417	4437.986610	12.450000
1134.857986	4447.816327	12.466667
1136.302015	4459.272222	12.483333
1138.065931	4472.241299	12.500000
1139.669887	4484.478279	12.516667
1141.272772	4498.313605	12.533333
1143.037182	4510.545917	12.550000
1144.641104	4522.833927	12.566667
1146.565967	4535.059856	12.583333
1148.171465	4544.995814	12.600000
1149.614880	4557.369093	12.616667
1151.539712	4569.641418	12.633333
1153.144116	4581.210524	12.650000
1154.908451	4593.553819	12.666667
1156.513906	4603.553504	12.683333
1157.795184	4618.445213	12.700000
1159.880437	4630.760042	12.716667
1161.324314	4642.443882	12.733333
1163.088056	4655.671937	12.750000
1165.013879	4666.465817	12.766667
1166.136775	4678.271075	12.783333
1168.221975	4690.665577	12.800000
1169.826279	4702.384813	12.816667
1171.108537	4715.812265	12.833333
1173.193704	4728.256385	12.850000
1174.798520	4739.211419	12.866667
1176.563258	4750.952046	12.883333
1177.846016	4763.634246	12.900000
1179.769576	4777.806449	12.916667
1181.534828	4788.780077	12.933333
1183.139051	4800.619723	12.950000
1184.903739	4812.435775	12.966667
1186.186444	4825.197481	12.983333
1187.949467	4839.497850	13.000000
1189.713575	4852.180366	13.016667
1191.317196	4864.917213	13.033333
1193.080181	4879.275202	13.050000
1194.684330	4891.224579	13.066667
1195.965864	4905.733605	13.083333
1198.210788	4919.212888	13.100000
1199.659957	4922.997432	13.116667
1199.672584	4915.577043	13.133333
1199.376940	4889.308226	13.150000
1198.283823	4855.909639	13.166667
1196.550378	4820.313984	13.183333
1195.138896	4783.132414	13.200000

1193.405289	4747.780200	13.216667
1191.672143	4711.738177	13.233333
1189.777898	4676.665533	13.250000
1188.203448	4643.242189	13.266667
1186.468986	4609.164957	13.283333
1184.572901	4576.837640	13.300000
1182.836157	4546.167436	13.316667
1181.259294	4516.345767	13.333333
1179.361948	4485.900122	13.350000
1177.784964	4456.258840	13.366667
1175.886968	4426.785630	13.383333
1174.631343	4396.458372	13.400000
1172.572749	4367.205549	13.416667
1171.155479	4338.662519	13.433333
1169.580281	4306.355546	13.450000
1167.520983	4278.152726	13.466667
1166.264013	4249.833393	13.483333
1164.366628	4219.447646	13.500000
1162.628109	4191.424716	13.516667
1161.049498	4164.211690	13.533333
1158.990426	4135.673041	13.550000
1157.411194	4109.385954	13.566667
1155.671435	4083.215314	13.583333
1154.252072	4057.795641	13.600000
1152.673703	4030.222281	13.616667
1150.934799	4002.774409	13.633333
1149.195839	3975.410943	13.650000
1147.617300	3948.090359	13.666667
1145.555271	3923.964177	13.683333
1143.974630	3899.780610	13.700000
1142.555914	3873.395289	13.716667
1140.976171	3847.871503	13.733333
1139.236889	3820.989201	13.750000
1137.336578	3794.969049	13.766667
1135.916666	3770.369471	13.783333
1134.175750	3745.925526	13.800000
1132.596242	3720.051593	13.816667
1130.534758	3695.112163	13.833333
1129.114165	3671.528547	13.850000
1127.373055	3647.374030	13.866667
1125.792858	3622.526904	13.883333
1124.052133	3597.798014	13.900000
1122.311357	3573.144622	13.916667
1120.891009	3549.195203	13.933333
1118.829653	3524.064295	13.950000
1117.408732	3500.971725	13.966667
1115.827761	3477.280849	13.983333
1114.248162	3451.541957	14.000000
1112.346605	3427.382452	14.016667
1110.765015	3404.615313	14.033333
1109.023839	3380.558796	14.050000
1107.282145	3357.275618	14.066667
1105.539471	3335.455557	14.083333
1104.118643	3312.222508	14.100000
1102.215403	3290.576700	14.116667
1100.794482	3267.481454	14.133333
1098.891615	3245.277996	14.150000
1097.470142	3223.008492	14.166667
1095.728581	3199.527030	14.183333
1093.825119	3178.210895	14.200000
1092.243030	3156.188738	14.216667
1090.339028	3135.678937	14.233333
1088.916879	3114.417869	14.250000
1087.656523	3091.152517	14.266667
1085.754196	3068.142180	14.283333
1084.172330	3045.786709	14.300000
1082.269457	3023.592652	14.316667
1080.365197	3003.467001	14.333333
1079.103264	2982.555197	14.350000
1077.359848	2961.842452	14.366667
1075.939119	2938.462094	14.383333
1074.197376	2915.252268	14.400000
1072.133740	2893.524425	14.416667
1070.389266	2874.390498	14.433333
1068.805672	2854.614294	14.450000
1067.222039	2834.897118	14.466667
1065.317404	2815.331154	14.483333
1063.894173	2795.685997	14.500000
1062.311716	2774.213332	14.516667
1060.407389	2754.188393	14.533333
1058.984034	2734.727578	14.550000
1057.401441	2713.457103	14.566667
1055.657894	2692.940213	14.583333
1053.752970	2673.805482	14.600000
1052.329451	2654.589783	14.616667
1050.424871	2634.942788	14.633333
1049.323919	2613.238763	14.650000
1047.420509	2591.844135	14.666667
1045.676276	2572.350528	14.683333
1043.611038	2553.014139	14.700000
1042.025539	2536.081707	14.716667
1040.601733	2517.293314	14.733333
1038.857338	2498.041482	14.750000
1036.951595	2480.130070	14.766667
1035.526850	2462.744883	14.783333
1033.621853	2443.719468	14.800000
1032.357925	2425.785405	14.816667
1030.613329	2406.834036	14.833333
1028.868690	2387.945495	14.850000
1027.606265	2367.768574	14.866667
1025.540576	2349.105287	14.883333
1023.955889	2330.960746	14.900000
1022.372364	2311.081344	14.916667
1020.466630	2293.156524	14.933333
1019.042701	2274.551920	14.950000
1017.137680	2255.562856	14.966667
1015.230637	2239.591411	14.983333
1013.645710	2221.805765	15.000000
1011.738206	2206.522758	15.016667
1010.151637	2191.187491	15.033333
1008.726302	2174.681351	15.050000
1007.141619	2156.530680	15.066667
1005.877860	2138.344886	15.083333
1003.972515	2119.839466	15.100000
1002.387319	2102.454067	15.116667
1000.642755	2083.455341	15.133333
998.736128	2066.863170	15.150000
997.311676	2049.038827	15.166667
995.244490	2032.609994	15.183333
993.980061	2015.423650	15.200000
992.234521	1997.879704	15.216667
990.166844	1982.184615	15.233333
988.580580	1966.392718	15.250000
987.154766	1950.602652	15.266667
985.247094	1935.570198	15.283333
983.660728	1919.930927	15.300000
982.074329	1904.343082	15.316667
980.648377	1888.756791	15.333333
978.580827	1872.871241	15.350000
977.155174	1856.841066	15.366667
975.730582	1839.226145	15.383333
973.823765	1822.916857	15.400000
972.237513	1807.108786	15.416667
970.651586	1790.814745	15.433333
968.744292	1775.219021	15.450000
967.319131	1758.452898	15.466667
965.251277	1743.021433	15.483333
964.145930	1727.875673	15.500000
961.917875	1712.071448	15.516667
960.169813	1698.294186	15.533333
958.743395	1683.403442	15.550000
956.835845	1668.189661	15.566667
955.408655	1654.452915	15.583333
953.661168	1639.815988	15.600000
951.912948	1626.273385	15.616667
950.325182	1612.724449	15.633333
948.577943	1597.716649	15.650000
947.311428	1583.643111	15.666667
945.886121	1567.095647	15.683333
943.818833	1550.819263	15.700000
942.232269	1535.476503	15.716667
940.323674	1521.821251	15.733333
938.736356	1507.604082	15.750000
937.309826	1492.881367	15.766667
935.241322	1478.419518	15.783333
933.814383	1464.308114	15.800000
931.905956	1450.402814	15.816667
930.156977	1437.992227	15.833333
928.890090	1424.474164	15.850000
926.821080	1410.767767	15.866667
925.072013	1398.489120	15.883333
923.644547	1385.164431	15.900000
922.217048	1371.887404	15.916667
920.790827	1356.705102	15.933333
918.883109	1341.741198	15.950000
917.295670	1327.704044	15.966667
915.548033	1313.291298	15.983333
913.317613	1301.016951	16.000000
912.050073	1288.473488	16.016667
910.140884	1275.706146	16.033333
908.712798	1263.305361	16.050000
907.446122	1249.473707	16.066667
905.537151	1236.379049	16.083333
903.949117	1223.230559	16.100000
901.718479	1211.281704	16.116667
900.128813	1200.569306	16.133333
898.861654	1187.456715	16.150000
896.951899	1175.534485	16.166667
895.523569	1163.498304	16.183333
893.935959	1149.715942	16.200000
892.026725	1137.015611	16.216667
890.598606	1124.664832	16.233333
888.689304	1112.065190	16.250000
887.100635	1099.864453	16.266667
885.512237	1087.259220	16.283333
883.281258	1075.818717	16.300000
882.012863	1064.552314	16.316667
880.263283	1053.039419	16.333333
878.834644	1041.464249	16.350000
877.085302	1029.596059	16.366667
875.174850	1018.713742	16.383333
873.746713	1006.389963	16.400000
871.996982	995.102177	16.416667
870.728972	983.260622	16.433333
868.659376	970.427826	16.450000
866.909260	959.715164	16.466667
865.319602	948.989952	16.483333
863.730782	937.013633	16.500000
862.301552	926.321450	16.516667
861.034212	913.479532	16.533333
858.482660	901.552359	16.550000
857.213824	890.943461	16.566667
854.982044	880.699501	16.583333
853.070081	872.072185	16.600000
851.960810	862.784496	16.616667
850.049646	852.963133	16.633333
848.780681	842.546699	16.650000
847.191272	831.449765	16.666667
845.280306	821.335281	16.683333
843.690835	810.330097	16.700000
841.940023	800.656748	16.716667
840.349671	790.967047	16.733333
838.599625	780.148745	16.750000
837.009491	770.134107	16.766667
835.579816	760.105957	16.783333
833.990436	748.966879	16.800000
832.240266	738.333622	16.816667
830.489798	728.146626	16.833333
828.578547	718.455706	16.850000
826.827225	709.542544	16.866667
825.075880	700.664423	16.883333
823.645484	691.711746	16.900000
822.055103	682.066086	16.916667
820.304208	672.516259	16.933333
818.553025	663.395659	16.950000
816.801817	654.313021	16.966667
815.371040	645.928932	16.983333
813.620040	636.535311	17.000000
811.868500	627.947268	17.016667
810.437911	619.284025	17.033333
808.687087	609.627785	17.050000
806.774987	601.204159	17.066667
805.505064	592.218368	17.083333
803.753905	583.061215	17.100000
802.484430	573.405971	17.116667
800.572978	564.015967	17.133333
798.500761	555.095519	17.150000
796.909237	547.155523	17.166667
795.157450	538.935836	17.183333
793.405150	531.482677	17.200000
791.974049	523.583445	17.216667
790.221709	516.190393	17.233333
788.791292	507.268794	17.250000
786.879146	498.914865	17.266667
785.126980	491.260536	17.283333
783.535041	483.940004	17.300000
782.104047	475.881089	17.316667
780.352055	467.968434	17.333333
778.760526	460.034924	17.350000
777.168975	452.136258	17.366667
775.738122	443.866426	17.383333
773.826015	435.453303	17.400000
772.073903	427.719400	17.416667
770.160817	420.767855	17.433333
768.408198	413.789774	17.450000
767.137252	406.329914	17.466667
765.384823	399.070019	17.483333
763.632600	391.501844	17.500000
761.879672	384.985420	17.516667
760.287666	377.764191	17.533333
758.535152	370.631098	17.550000
756.782167	364.199995	17.566667
755.189428	358.073251	17.583333
753.596896	351.638149	17.600000
752.165277	344.510971	17.616667
750.412441	337.858136	17.633333
748.659805	330.906096	17.650000
746.906928	324.313230	17.666667
745.314302	318.019202	17.683333
743.722092	311.102641	17.700000
742.290132	304.484798	17.716667
740.216417	297.800115	17.733333
738.623715	291.619147	17.750000
736.870292	285.840733	17.766667
735.277342	280.030043	17.783333
733.363399	274.356692	17.800000
731.930692	268.853711	17.816667
730.338116	262.485260	17.833333
728.745099	256.772614	17.850000
726.991788	250.828713	17.866667
724.917066	245.646675	17.883333
723.644770	240.203068	17.900000
722.051689	234.586051	17.916667
720.458799	228.685832	17.933333
718.866095	222.506180	17.950000
717.273168	216.660490	17.966667
715.359247	210.955110	17.983333
713.444903	205.881117	18.000000
711.851520	200.715283	18.016667
710.258123	195.571284	18.033333
708.504022	190.805052	18.050000
706.910597	185.703602	18.066667
705.316957	180.920769	18.083333
703.723503	175.861834	18.100000
701.969349	171.176313	18.116667
700.054889	166.273981	18.133333
698.300512	161.921267	18.150000
697.027587	157.414869	18.166667
694.952210	153.211374	18.183333
693.679456	148.450560	18.200000
692.246394	143.478168	18.216667
690.492148	138.928947	18.233333
688.898569	134.056165	18.250000
686.983808	129.604460	18.266667
685.229142	125.682971	18.283333
683.474465	121.777030	18.300000
681.719778	117.886635	18.316667
680.446545	113.839972	18.333333
678.531349	110.037899	18.350000
677.097794	105.800361	18.366667
675.182576	102.030346	18.383333
673.427651	98.495763	18.400000
671.833204	94.917499	18.416667
670.238749	91.352877	18.433333
668.644468	87.527386	18.450000
666.728834	84.379363	18.466667
665.294839	80.798265	18.483333
663.860835	77.230770	18.500000
661.945357	73.849242	18.516667
660.350666	70.636542	18.533333
658.756147	67.166500	18.550000
657.000951	64.035925	18.566667
655.566545	61.069797	18.583333
653.811512	57.695473	18.600000
651.895625	54.924047	18.616667
650.300708	52.047829	18.633333
648.224319	49.354591	18.650000
646.950012	46.911032	18.666667
645.194411	44.384599	18.683333
643.438804	41.866955	18.700000
641.843680	39.300481	18.716667
640.087887	37.061233	18.733333
638.653065	34.714105	18.750000
637.057924	32.172475	18.766667
635.302116	29.956064	18.783333
633.867279	27.631699	18.800000
632.271949	25.372378	18.816667
630.676786	22.863622	18.833333
628.921129	20.421334	18.850000
626.843975	18.869558	18.866667
625.408772	17.091882	18.883333
623.652759	15.180234	18.900000
622.217549	13.413018	18.916667
620.622017	11.455250	18.933333
618.705165	10.124507	18.950000
617.269945	8.372174	18.966667
615.513745	6.740361	18.983333
613.917693	5.558096	19.000000
612.321808	4.128080	19.016667
610.725752	2.952308	19.033333
609.450838	1.414057	19.050000
607.533633	0.609864	19.066667
606.418870	-0.481199	19.083333
604.501329	-0.783248	19.100000
603.065253	-1.257764	19.116667
601.629343	-1.979622	19.133333
600.514409	-2.815605	19.150000
599.078497	-3.534342	19.166667
597.803072	-4.309369	19.183333
596.206669	-4.967121	19.200000
594.770754	-5.681164	19.216667
593.174348	-6.335772	19.233333
591.417618	-7.177101	19.250000
589.821376	-8.074056	19.266667
588.545944	-8.839102	19.283333
587.110187	-9.789840	19.300000
585.353452	-10.622552	19.316667
583.275573	-11.092794	19.333333
581.518834	-11.921352	19.350000
579.119976	-12.272264	19.366667
576.721117	-12.621554	19.383333
574.001279	-12.853375	19.400000
571.602254	-12.956552	19.416667
555.400546	-7.105769	19.433333
553.158915	-2.646383	19.450000
558.783350	-4.185883	19.466667
556.704652	-3.433016	19.483333
559.761593	-4.533359	19.500000
559.930228	-5.322483	19.516667
556.888923	-4.709229	19.533333
555.131529	-4.559021	19.550000
548.559309	-2.427620	19.566667
551.937391	-3.887237	19.583333
548.575109	-3.157214	19.600000
546.175434	-2.288353	19.616667
546.022763	-2.473494	19.633333
544.104879	-2.264322	19.650000
544.112860	-2.750015	19.666667
541.874161	-2.667066	19.683333
537.709272	-1.403374	19.700000
540.445561	-2.873179	19.716667
534.675946	-1.272153	19.733333
534.844253	-1.572321	19.750000
532.284575	-1.371604	19.766667
531.489787	-1.081899	19.783333
531.658417	-1.865593	19.800000
527.814829	-1.200087	19.816667
527.662319	-1.625279	19.833333
526.386388	-1.644575	19.850000
522.221659	-0.620449	19.866667
521.908499	-0.745754	19.883333
519.509308	-0.599680	19.900000
519.356636	-0.782683	19.916667
517.920376	-0.983563	19.933333
515.360534	-0.537529	19.950000
515.529162	-1.317069	19.966667
512.648503	-0.994677	19.983333
509.767682	-0.431571	20.000000
509.133704	-0.679778	20.016667
505.610768	0.355690	20.033333
506.902655	-0.587814	20.050000
504.663949	-0.495238	20.066667
503.067198	-0.633978	20.083333
502.433380	-1.120037	20.100000
497.947670	0.025223	20.116667
497.955646	-0.452852	20.133333
495.556290	-0.060834	20.150000
493.638400	0.157500	20.166667
493.646535	-0.558388	20.183333
490.765871	-0.229777	20.200000
489.008470	-0.068351	20.216667
488.214160	-0.492728	20.233333
484.852029	0.011549	20.250000
486.464891	-1.044095	20.266667
481.658201	0.220853	20.283333
481.505686	-0.196192	20.300000
479.267134	-0.333376	20.316667
477.188594	0.183651	20.333333
476.875749	-0.411493	20.350000
474.316060	-0.193780	20.366667
471.756211	0.261171	20.383333
472.085320	-0.564559	20.400000
468.241561	0.355318	20.416667
468.410180	-0.411445	20.433333
465.529353	0.160974	20.450000
463.771948	0.327445	20.466667
464.101055	-0.496050	20.483333
460.899566	-0.277602	20.500000
458.018738	0.296389	20.516667
458.026709	-0.174155	20.533333
455.306369	0.342361	20.550000
455.474986	-0.420665	20.566667
452.273337	0.035971	20.583333
451.799840	-0.259162	20.600000
450.042590	-0.324015	20.616667
447.322406	-0.039905	20.633333
446.528088	-0.451947	20.650000
443.005303	0.357579	20.666667
441.568716	0.646327	20.683333
441.576841	-0.054881	20.700000
439.498611	-0.000606	20.716667
439.506736	-0.700719	20.733333
436.626217	-0.587943	20.750000
433.905874	-0.066496	20.766667
432.951065	-0.416417	20.783333
429.106988	0.977619	20.800000
429.114955	0.512348	20.816667
427.839167	0.279599	20.833333
426.563379	0.047424	20.850000
425.769056	-0.358463	20.866667
422.728045	-0.182227	20.883333
421.452256	-0.412476	20.900000
419.855488	-0.525943	20.916667
415.690588	0.753424	20.933333
415.698553	0.290894	20.950000
413.780652	0.525910	20.966667
412.986173	0.354427	20.983333
412.031514	-0.220237	21.000000
409.471811	0.017764	21.016667
408.356508	-0.266702	21.033333
406.599403	-0.548234	21.050000
403.076457	0.500454	21.066667
402.924086	-0.131209	21.083333
398.919673	1.092206	21.100000
399.890570	0.284018	21.116667
398.293952	-0.052757	21.133333
396.215713	0.015081	21.150000
395.581873	-0.439741	21.166667
393.343145	-0.312584	21.183333
390.141482	0.164054	21.200000
389.186511	0.055751	21.216667
385.984694	0.761799	21.233333
386.153145	0.246976	21.250000
384.235239	0.488376	21.266667
383.440909	0.094971	21.283333
382.646883	-0.753337	21.300000
379.605707	-0.330984	21.316667
377.687953	-0.315160	21.333333
374.807112	0.277399	21.350000
373.210031	0.631961	21.366667
372.255057	0.526924	21.383333
370.658280	0.428023	21.400000
370.024284	0.207278	21.416667
369.230102	-0.408001	21.433333
366.510052	-0.324113	21.450000
364.592295	-0.304138	21.466667
362.032582	-0.050818	21.483333
359.633055	0.596254	21.500000
359.159697	0.093926	21.516667
357.241637	0.566726	21.533333
356.607941	-0.101916	21.550000
354.850671	-0.137170	21.566667
352.290805	0.344063	21.583333
351.817445	-0.155818	21.600000
348.776263	0.276149	21.616667
347.500458	0.068445	21.633333
345.743036	0.260156	21.650000
343.504147	0.626779	21.666667
342.870297	0.187584	21.683333
340.792046	0.272902	21.700000
340.639812	-0.563367	21.716667
337.919604	-0.243800	21.733333
335.520225	0.183086	21.750000
334.083928	0.037862	21.766667
332.326504	0.232521	21.783333
330.408591	0.485687	21.800000
329.935227	-0.007577	21.816667
327.375656	0.034453	21.833333
326.902142	-0.235342	21.850000
324.663547	-0.308241	21.866667
322.424655	0.063422	21.883333
320.506740	0.318874	21.900000
318.749463	0.294815	21.916667
316.831547	0.550948	21.933333
316.679159	-0.054674	21.950000
314.279924	0.155848	21.966667
313.806557	-0.332149	21.983333
311.246980	-0.282799	22.000000
309.008086	0.091866	22.016667
307.250806	0.071710	22.033333
304.690785	0.783780	22.050000
304.056780	0.576582	22.066667
303.583558	-0.128443	22.083333
301.665787	-0.088377	22.100000
301.032075	-0.733408	22.116667
296.385991	0.298827	22.133333
295.270518	0.268507	22.150000
293.673577	0.413309	22.166667
292.718445	0.544099	22.183333
291.282286	0.193575	22.200000
289.845980	0.062500	22.216667
288.088842	-0.169671	22.233333
286.331557	-0.182808	22.250000
282.808747	0.663860	22.266667
282.335227	0.403061	22.283333
281.380386	0.099783	22.300000
278.981144	0.321846	22.316667
278.507769	-0.155228	22.333333
275.466570	0.301273	22.350000
275.153684	-0.232992	22.366667
272.754585	-0.225222	22.383333
270.194707	0.274795	22.400000
268.758251	0.366832	22.416667
267.161307	0.517460	22.433333
265.564362	0.668358	22.450000
265.412107	-0.137335	22.466667
262.691883	0.206939	22.483333
262.058160	-0.422035	22.500000
258.856468	0.098645	22.516667
256.938544	0.368327	22.533333
255.502231	0.248267	22.550000
253.584306	0.518622	22.566667
252.789948	0.166139	22.583333
252.156079	-0.244143	22.600000
248.793752	0.552443	22.616667
248.641492	-0.246078	22.633333
244.797841	0.512497	22.650000
244.805783	0.084803	22.666667
242.406533	0.319150	22.683333
240.809727	0.262272	22.700000
239.373410	0.147602	22.716667
237.455626	0.208618	22.733333
235.537698	0.483113	22.750000
235.064457	-0.192971	22.766667
231.060029	1.053801	22.783333
232.030903	0.278436	22.800000
230.434380	-0.199464	22.816667
228.035268	-0.171966	22.833333
226.598948	-0.282037	22.850000
222.594661	0.754324	22.866667
222.281622	0.447978	22.883333
221.326768	0.164095	22.900000
218.927512	0.406346	22.916667
219.096081	-0.285201	22.933333
216.215498	-0.077321	22.950000
214.779176	-0.183544	22.966667
212.379918	0.061256	22.983333
209.498911	0.902313	23.000000
209.506989	0.271768	23.016667
206.786612	0.844730	23.033333
206.634200	0.273521	23.050000
205.839973	-0.273059	23.066667
203.119875	-0.117597	23.083333
201.523200	-0.370069	23.100000
199.123800	0.088350	23.116667
195.922093	0.630436	23.133333
196.571845	0.188002	23.150000
193.691116	0.614029	23.166667
194.501636	-0.303366	23.183333
191.621186	-0.292310	23.200000
189.703390	-0.214772	23.216667
188.106572	-0.253539	23.233333
185.386330	0.117406	23.250000
183.628884	0.345558	23.266667
182.994861	0.164821	23.283333
180.114129	0.595625	23.300000
180.764157	-0.258996	23.316667
177.723073	0.024814	23.333333
176.607582	0.020964	23.350000
175.492367	-0.395219	23.366667
171.809187	0.331079	23.383333
171.817257	-0.286786	23.400000
168.776171	0.001198	23.416667
166.697468	0.761348	23.433333
168.310565	-0.645378	23.450000
164.627521	-0.121410	23.466667
163.512165	-0.327162	23.483333
160.310450	0.227944	23.500000
158.232021	0.578866	23.516667
158.239951	0.169722	23.533333
155.680328	0.287993	23.550000
155.046438	-0.090571	23.566667
153.770727	-0.438483	23.583333
150.569009	0.120219	23.600000
149.774628	-0.197981	23.616667
147.214867	0.127914	23.633333
145.617903	0.306509	23.650000
144.823657	-0.213139	23.666667
141.621666	0.754160	23.683333
142.592664	-0.205211	23.700000
139.230591	0.213351	23.716667
137.473272	0.250014	23.733333
137.160491	-0.441472	23.750000
134.279748	0.006175	23.766667
132.361939	0.103278	23.783333
131.086087	-0.033149	23.800000
127.884229	0.734655	23.816667
128.855089	-0.019071	23.833333
125.813990	0.288707	23.850000
125.179958	0.121040	23.866667
123.583394	-0.297051	23.883333
120.221046	0.531362	23.900000
121.031685	-0.562547	23.916667
117.027513	0.300863	23.933333
115.430545	0.486499	23.950000
114.796779	-0.078278	23.966667
112.076386	0.518008	23.983333
112.405421	-0.197333	24.000000
109.685295	0.001357	24.016667
107.927969	0.048574	24.033333
107.294201	-0.512270	24.050000
103.450515	0.297650	24.066667
102.495502	0.252257	24.083333
100.738175	0.301785	24.100000
99.462182	0.374173	24.116667
98.989033	-0.439541	24.133333
95.787302	0.139092	24.150000
94.992909	-0.160387	24.166667
93.075223	-0.246385	24.183333
89.712870	0.589797	24.200000
90.523235	-0.097021	24.216667
86.679677	0.522109	24.233333
86.527107	0.187556	24.250000
85.411865	-0.187861	24.266667
82.531240	0.082292	24.283333
81.736844	-0.212522	24.300000
79.016708	0.000828	24.316667
76.938265	0.371621	24.333333
77.267292	-0.331764	24.350000
73.744578	0.372032	24.366667
73.271158	-0.037200	24.383333
70.551019	0.180010	24.400000
69.435380	0.395673	24.416667
69.764666	-0.693964	24.433333
65.279144	0.170644	24.450000
63.842656	0.310233	24.466667
62.566788	0.197651	24.483333
60.969811	0.396514	24.500000
61.138604	-0.629650	24.516667
57.455396	0.139155	24.533333
56.179396	0.222034	24.550000
54.743295	-0.214696	24.566667
52.183381	0.338210	24.583333
50.907639	0.037367	24.600000
49.471278	-0.011678	24.616667
47.713809	0.249189	24.633333
47.080023	-0.284029	24.650000
43.557429	0.239517	24.666667
43.404852	-0.084886	24.683333
40.845320	-0.102933	24.700000
38.927361	0.218802	24.716667
38.453933	-0.178067	24.733333
34.931209	0.540282	24.750000
34.939247	-0.031478	24.766667
33.663499	-0.323628	24.783333
30.301263	0.338028	24.800000
30.309300	-0.231920	24.816667
27.107679	0.182570	24.833333
25.671059	0.521082	24.850000
25.197754	-0.060730	24.866667
22.637962	0.310471	24.883333
21.843678	-0.152259	24.900000
19.123522	0.090280	24.916667
17.366049	0.358671	24.933333
15.769316	0.191890	24.950000
13.530375	0.637156	24.966667
14.180491	-0.349932	24.983333
12.102290	-0.338139	25.000000
9.863598	-0.266629	25.016667
7.945885	-0.311526	25.033333
4.262412	0.851629	25.050000
4.270319	0.477435	25.066667
2.833947	0.445016	25.083333
1.558188	0.167794	25.100000
