Thu Nov 07 15:00:33 2013

Number of Points = 2478
Depth (nm)	Load (µN)	Time (s)
-7.203510	0.037802	0.000000
-6.878816	0.299001	0.016667
-5.751548	0.077590	0.033333
-5.266111	-0.098460	0.050000
-5.262142	-0.098460	0.066667
-4.937194	-0.215826	0.083333
-5.254203	-0.098460	0.100000
-5.089744	-0.157143	0.116667
-5.727731	0.077590	0.133333
-5.402783	-0.039776	0.150000
-5.238451	0.090979	0.166667
-5.394971	0.149661	0.183333
-5.070023	0.032296	0.200000
-4.745202	0.104430	0.216667
-4.420254	-0.012934	0.233333
-4.255795	-0.071616	0.250000
-4.733293	0.104430	0.266667
-5.050302	0.221793	0.283333
-4.564992	0.235305	0.300000
-4.561022	0.235305	0.316667
-4.236074	0.117943	0.333333
-4.392721	0.366241	0.350000
-4.067773	0.248880	0.366667
-3.903314	0.190200	0.383333
-4.059834	0.248880	0.400000
-4.055992	0.438557	0.416667
-3.731043	0.321198	0.433333
-3.887690	0.569613	0.450000
-3.562742	0.452255	0.466667
-3.719262	0.510934	0.483333
-3.554803	0.452255	0.500000
-3.229982	0.524694	0.516667
-3.226013	0.524694	0.533333
-3.382532	0.583372	0.550000
-3.699541	0.700728	0.566667
-3.535210	0.831903	0.583333
-3.049773	0.655871	0.600000
-3.045930	0.845785	0.616667
-2.720982	0.728432	0.633333
-3.198480	0.904462	0.650000
-2.873660	0.977082	0.666667
-2.388222	0.801054	0.683333
-2.544869	1.049762	0.700000
-2.540900	1.049762	0.716667
-2.536930	1.049762	0.733333
-2.533088	1.239853	0.750000
-2.208140	1.122505	0.766667
-2.364787	1.371329	0.783333
-2.039839	1.253982	0.800000
-2.035870	1.253982	0.816667
-2.032028	1.444191	0.833333
-1.546590	1.268173	0.850000
-2.345194	1.751803	0.866667
-1.699268	1.517115	0.883333
-1.855788	1.575787	0.900000
-1.691456	1.707443	0.916667
-1.366508	1.590100	0.933333
-1.202050	1.531428	0.950000
-0.877102	1.414086	0.966667
-0.873260	1.604475	0.983333
-1.350758	1.780487	1.000000
-1.186299	1.721816	1.016667
-1.021968	1.853593	1.033333
-1.017998	1.853593	1.050000
-0.532561	1.677583	1.066667
-0.528719	1.868091	1.083333
-0.524750	1.868091	1.100000
-0.520780	1.868091	1.116667
-0.516938	2.058657	1.133333
-0.352479	1.999988	1.150000
-0.509127	2.249281	1.166667
-0.184179	2.131946	1.183333
-0.019720	2.073278	1.200000
0.305100	2.146629	1.216667
0.309070	2.146629	1.233333
0.634018	2.029295	1.250000
0.317009	2.146629	1.266667
0.000000	2.263963	1.283333
0.003458	3.027284	1.300000
0.970107	3.057319	1.316667
1.615649	3.396144	1.333333
2.742531	3.750992	1.350000
3.227326	4.533180	1.366667
4.033099	5.199547	1.383333
4.999360	5.808762	1.400000
5.805001	6.670814	1.416667
6.931491	7.610841	1.433333
8.539705	7.990921	1.450000
9.184853	8.918062	1.466667
10.793065	9.301483	1.483333
11.598960	9.785186	1.500000
12.244105	10.717704	1.516667
13.691694	11.359297	1.533333
14.336966	12.100752	1.550000
15.463574	12.863533	1.566667
16.590181	13.628477	1.583333
17.556297	14.454178	1.600000
19.004011	14.909546	1.616667
19.649410	15.462419	1.633333
20.615654	16.096273	1.650000
21.742255	16.870597	1.666667
22.868986	17.449183	1.683333
23.835227	18.087851	1.700000
24.640978	18.786591	1.716667
25.767707	19.369700	1.733333
27.054923	19.895762	1.750000
27.860671	20.599009	1.766667
28.666418	21.303754	1.783333
29.632520	22.151422	1.800000
30.759109	22.942704	1.816667
31.885831	23.535464	1.833333
32.691573	24.246806	1.850000
33.978782	24.784054	1.866667
34.623899	25.758501	1.883333
35.750616	26.357594	1.900000
36.877198	27.160427	1.916667
37.682799	28.082449	1.933333
39.130492	28.569652	1.950000
40.096852	29.030721	1.966667
40.902722	29.551264	1.983333
42.029434	30.159425	2.000000

42.835030	31.090093	2.016667
43.640624	32.022909	2.033333
44.927684	32.782422	2.050000
45.894039	33.250986	2.066667
47.020608	34.072606	2.083333
47.826335	34.807670	2.100000
48.953039	35.427298	2.116667
49.919252	36.106905	2.133333
50.885327	36.994571	2.150000
52.172378	37.767488	2.166667
53.138866	38.037862	2.183333
53.944587	38.781951	2.200000
54.750167	39.735278	2.216667
55.716235	40.632317	2.233333
56.842791	41.473083	2.250000
58.129974	42.048783	2.266667
59.096179	42.742856	2.283333
59.901752	43.706255	2.300000
60.707184	44.881615	2.316667
61.833874	45.522684	2.333333
62.960421	46.375733	2.350000
63.926620	47.078532	2.366667
64.892675	47.993956	2.383333
66.179850	48.583286	2.400000
66.985556	49.349302	2.416667
67.951750	50.058435	2.433333
68.917800	50.981440	2.450000
69.723361	51.964979	2.466667
70.849897	52.833933	2.483333
71.655312	54.035269	2.500000
72.621213	55.181168	2.516667
73.747745	56.057332	2.533333
74.874132	57.150338	2.550000
76.000805	57.816176	2.566667
77.127333	58.698856	2.583333
77.772392	59.758700	2.600000
78.898772	60.861801	2.616667
79.864806	61.809659	2.633333
80.991328	62.701364	2.650000
81.957504	63.436393	2.666667
82.923389	64.607902	2.683333
83.568439	65.681014	2.700000
84.694809	66.799668	2.716667
85.821030	68.140022	2.733333
86.786906	69.323260	2.750000
87.592292	70.567706	2.766667
88.397528	72.035126	2.783333
89.363102	73.668675	2.800000
90.810289	74.911173	2.816667
91.936643	76.052493	2.833333
92.742166	77.091353	2.850000
93.707879	78.518674	2.866667
94.834228	79.668815	2.883333
95.800235	80.656994	2.900000
96.926580	81.812607	2.916667
97.731945	83.087590	2.933333
98.858286	84.249085	2.950000
99.503158	85.588125	2.966667
100.629193	87.205956	2.983333
101.595038	88.435291	3.000000
102.721219	89.835530	3.016667
103.686909	91.297776	3.033333
104.813237	92.478590	3.050000
105.457791	94.291896	3.066667
106.905092	95.363120	3.083333
107.870925	96.611750	3.100000
108.836602	98.092184	3.116667
109.641788	99.634573	3.133333
110.607460	101.122649	3.150000
111.733464	102.786779	3.166667
112.699286	104.052169	3.183333
113.665105	105.320499	3.200000
114.951745	106.707223	3.216667
115.757071	108.039945	3.233333
116.883218	109.491963	3.250000
117.849028	110.772890	3.266667
118.814681	112.290178	3.283333
119.940977	113.519338	3.300000
120.746293	114.867559	3.316667
121.872427	116.337336	3.333333
122.517092	117.985075	3.350000
123.964199	119.346451	3.366667
125.090642	120.355518	3.383333
125.896106	121.482808	3.400000
126.861740	123.027897	3.416667
127.827689	124.102214	3.433333
128.632830	125.712016	3.450000
129.758786	127.447864	3.466667
130.885059	128.711122	3.483333
131.850841	130.035314	3.500000
132.977110	131.304476	3.516667
133.942888	132.634560	3.533333
135.229802	133.611374	3.550000
135.874760	134.822201	3.566667
137.000860	136.343401	3.583333
137.645491	138.042268	3.600000
138.932237	139.271197	3.616667
139.897841	140.861375	3.633333
140.863604	142.212486	3.650000
141.989855	143.508629	3.666667
142.795126	144.923540	3.683333
143.760721	146.527630	3.700000
144.886801	148.077663	3.716667
145.852555	149.444334	3.733333
146.978795	150.756075	3.750000
148.105033	152.070774	3.766667
149.070946	153.200015	3.783333
150.037022	154.084851	3.800000
150.842113	155.769866	3.816667
151.968343	157.095546	3.833333
152.934084	158.482023	3.850000
153.739167	160.177576	3.866667
155.186369	161.396886	3.883333
155.991614	162.850450	3.900000
156.796690	164.556551	3.916667
157.762253	166.208672	3.933333
158.888469	167.556286	3.950000
159.693369	169.524425	3.966667
160.979901	171.072503	3.983333
161.945622	172.488016	4.000000
163.071829	173.848714	4.016667
164.037716	175.017385	4.033333
164.843112	176.245985	4.050000
165.969144	177.868238	4.066667
166.774537	179.101892	4.083333
167.579587	180.846349	4.100000
168.866101	182.421464	4.116667
169.831806	183.860581	4.133333
170.797680	185.046993	4.150000
171.602721	186.805366	4.166667
172.728737	188.452179	4.183333
173.694261	190.160533	4.200000
174.499122	192.187954	4.216667
175.625130	193.846789	4.233333
176.590646	195.567141	4.250000
177.716475	197.492717	4.266667
178.842475	199.163593	4.283333
179.647669	200.693615	4.300000
180.613175	202.429344	4.316667
181.899481	204.314611	4.333333
183.025996	205.216861	4.350000
183.831182	206.759096	4.366667
184.475877	208.361867	4.383333
185.601508	210.582573	4.400000
186.566823	212.603609	4.416667
187.853466	213.986976	4.433333
188.658463	215.810095	4.450000
189.623947	217.579489	4.466667
190.589251	219.617811	4.483333
191.715217	221.337833	4.500000
192.359359	223.766543	4.516667
193.485142	225.761899	4.533333
194.610741	228.029405	4.550000
195.897005	229.977544	4.566667
197.183985	230.857542	4.583333
197.828829	232.237502	4.600000
198.633620	234.368965	4.616667
199.438408	236.505264	4.633333
200.403681	238.588943	4.650000
201.850417	240.505135	4.666667
202.334400	242.499738	4.683333
203.781129	244.425165	4.700000
204.586083	246.313045	4.716667
205.711829	248.362550	4.733333
206.516778	250.258586	4.750000
207.642517	252.317293	4.766667
208.447277	254.495644	4.783333
209.893987	256.449340	4.800000
210.538621	258.144379	4.816667
212.145998	259.773785	4.833333
212.790812	261.199141	4.850000
213.916720	263.007405	4.866667
214.721834	264.657312	4.883333
215.366085	266.922168	4.900000
216.652287	268.962584	4.916667
217.777998	271.065207	4.933333
218.583102	272.729421	4.950000
219.708619	275.120164	4.966667
220.674019	277.014175	4.983333
221.639417	278.912039	5.000000
222.925789	280.699237	5.016667
223.570016	283.000737	5.033333
224.856382	284.796157	5.050000
225.500792	286.824400	5.066667
226.786964	288.910458	5.083333
227.752535	290.549053	5.100000
228.878403	292.417189	5.116667
229.843779	294.346398	5.133333
230.970023	295.652858	5.150000
231.614610	297.418108	5.166667
232.900765	299.528674	5.183333
233.545155	301.586696	5.200000
234.991984	303.362765	5.216667
235.475689	305.772673	5.233333
236.761831	307.901717	5.250000
237.566699	309.918918	5.266667
238.692347	312.114328	5.283333
239.978674	313.968385	5.300000
240.944216	315.650979	5.316667
241.428097	317.797777	5.333333
242.714221	319.953483	5.350000
243.518683	322.576401	5.366667
244.804801	324.742435	5.383333
245.770331	326.443201	5.400000
246.896151	328.382421	5.416667
248.022360	329.739573	5.433333
248.667104	331.270010	5.450000
249.792327	334.100440	5.466667
250.757846	335.817309	5.483333
251.401794	338.535672	5.500000
252.848178	340.975077	5.516667
253.653003	343.056313	5.533333
254.618115	345.380938	5.550000
255.583223	347.710436	5.566667
256.548129	350.342445	5.583333
257.834207	352.568367	5.600000
258.478529	354.728178	5.616667
259.603711	357.618806	5.633333
260.890181	359.260350	5.650000
261.855672	361.018681	5.666667
262.981649	362.723101	5.683333
263.465672	364.658008	5.700000
264.590837	367.574511	5.716667
265.716604	369.591639	5.733333
266.521191	372.028971	5.750000
267.807238	374.300667	5.766667
268.932997	376.330398	5.783333
269.737981	378.173515	5.800000
271.024223	380.153719	5.816667
271.347535	382.478591	5.833333
272.472670	385.440163	5.850000
273.598005	388.102695	5.866667
274.402155	391.191686	5.883333
276.170051	392.717516	5.900000
276.814530	394.643573	5.916667
277.940264	396.710613	5.933333
278.745020	398.894981	5.950000
279.389078	401.449147	5.966667
280.513974	404.767740	5.983333
281.639488	407.163168	6.000000
282.604302	409.931254	6.016667
283.729810	412.337017	6.033333
284.694826	414.804334	6.050000
285.820326	417.219898	6.066667
286.785756	419.070602	6.083333
287.589854	422.235591	6.100000
289.036531	424.238335	6.116667
289.841676	425.842020	6.133333
290.806885	428.021393	6.150000
291.611604	430.261217	6.166667
292.576172	433.396762	6.183333
293.701860	435.532622	6.200000
294.506145	438.419957	6.216667
295.470700	441.574681	6.233333
296.595952	444.361575	6.250000
297.560712	447.211014	6.266667
299.007360	449.257628	6.283333
299.330376	452.023688	6.300000
300.615671	455.418076	6.316667
301.901822	457.535281	6.333333
302.545803	460.204044	6.350000
303.992435	462.273087	6.366667
304.797331	464.248956	6.383333
305.762495	466.494604	6.400000
306.888362	468.364014	6.416667
307.371624	471.434566	6.433333
308.335910	474.991766	6.450000
309.621602	477.793598	6.466667
310.907289	480.601504	6.483333
311.872873	482.221549	6.500000
312.516823	484.937423	6.516667
313.642232	487.489176	6.533333
314.446223	490.814870	6.550000
315.410477	494.420458	6.566667
316.374724	498.034686	6.583333
317.660605	500.554096	6.600000
318.785774	503.465493	6.616667
320.072092	505.332716	6.633333
320.555525	508.147564	6.650000
322.001881	510.629916	6.666667
322.806729	512.676491	6.683333
323.771616	515.336249	6.700000
324.736947	517.333415	6.716667
325.541117	520.392324	6.733333
326.826970	522.953897	6.750000
327.791844	525.632722	6.766667
328.596453	528.036727	6.783333
329.721583	531.005069	6.800000
330.365021	534.484868	6.816667
331.811118	537.353679	6.833333
332.615940	539.438404	6.850000
333.740828	542.768468	6.866667
334.705678	545.483214	6.883333
335.349323	548.654819	6.900000
336.634685	551.948757	6.916667
337.760012	554.623792	6.933333
338.724848	557.359767	6.950000
340.010885	559.646520	6.966667
340.815686	561.762641	6.983333
341.941460	563.769766	7.000000
342.906515	566.179256	7.016667
343.550362	569.048473	7.033333
344.836155	571.698752	7.050000
345.640714	574.176804	7.066667
346.605527	576.948265	7.083333
347.730823	579.668717	7.100000
348.534909	582.852502	7.116667
349.820453	585.874639	7.133333
350.624997	588.374962	7.150000
351.428605	592.272349	7.166667
352.714137	595.312687	7.183333
353.839412	598.065369	7.200000
355.125640	600.067096	7.216667
355.930639	601.888932	7.233333
356.735166	604.414472	7.250000
357.860665	606.832298	7.266667
358.504228	610.125036	7.283333
359.789736	613.200701	7.300000
360.754739	615.687926	7.316667
361.880227	618.123303	7.333333
363.005948	620.208704	7.350000
363.649969	622.818600	7.366667
364.453761	626.441348	7.383333
365.578761	629.604360	7.400000
366.703518	633.129662	7.416667
367.828988	635.591849	7.433333
368.633480	638.169265	7.450000
369.437011	642.181746	7.466667
370.883205	644.904742	7.483333
371.526720	648.269810	7.500000
372.972908	651.003264	7.516667
373.777384	653.603951	7.533333
374.742104	656.513516	7.550000
376.028521	658.233695	7.566667
376.832990	660.845578	7.583333
377.958431	663.350252	7.600000
378.602165	666.387876	7.616667
379.566870	669.319332	7.633333
380.691815	672.563770	7.650000
381.817001	675.450119	7.666667
382.621208	678.452366	7.683333
383.585655	681.769283	7.700000
384.710340	685.402704	7.716667
385.675024	688.365841	7.733333
386.800191	691.278477	7.750000
387.604135	694.674445	7.766667
388.729049	697.965654	7.783333
389.854206	700.894179	7.800000
390.819368	703.144580	7.816667
391.945014	705.342627	7.833333
392.588950	708.079770	7.850000
393.713847	711.395960	7.866667
394.517766	714.828869	7.883333
395.481670	718.956317	7.900000
396.606304	722.664511	7.916667
397.570697	726.062066	7.933333
399.016797	728.926125	7.950000
399.821448	731.267676	7.966667
400.625594	734.361531	7.983333
401.750711	737.349846	8.000000
402.554599	740.829348	8.016667
403.679457	744.204502	8.033333
404.643823	747.640920	8.050000
406.090153	750.162736	8.066667
407.216265	751.665054	8.083333
408.021150	753.657411	8.100000
408.665038	756.464345	8.116667
409.789877	759.868204	8.133333
410.433251	763.443468	8.150000
411.557571	767.620520	8.166667
412.521654	771.480094	8.183333
413.485477	775.728913	8.200000
414.931267	779.056086	8.216667
415.574875	782.281400	8.233333
416.699683	785.730224	8.250000
417.825003	788.416678	8.266667
418.629088	791.601718	8.283333
419.914630	794.626754	8.300000
420.879454	797.380924	8.316667
421.522784	801.021432	8.333333
422.808316	804.061344	8.350000
423.772872	807.216071	8.366667
424.898171	809.932910	8.383333
425.702233	813.151864	8.400000
426.987753	816.211101	8.416667
427.631844	818.715875	8.433333
428.596122	822.283604	8.450000
429.720884	825.802572	8.466667
430.524406	829.828487	8.483333
431.488409	833.806895	8.500000
432.773644	837.290539	8.516667
433.737902	840.889853	8.533333
435.023920	843.204911	8.550000
435.667725	846.135978	8.566667
436.792724	849.301226	8.583333
437.756967	852.921261	8.600000
438.721207	856.547371	8.616667
439.846195	859.728567	8.633333
440.810959	862.572616	8.650000
441.614434	866.667211	8.666667
443.221405	868.904087	8.683333
443.704967	871.526500	8.700000
444.669185	875.184295	8.716667
445.794421	877.994775	8.733333
446.919387	881.209048	8.750000
447.402135	885.047037	8.766667
448.526556	889.073873	8.783333
449.811459	893.053538	8.800000
450.936948	895.485806	8.816667
451.580167	899.292830	8.833333
452.704841	902.942378	8.850000
453.508808	906.303026	8.866667
454.632932	910.773379	8.883333
455.918623	913.576972	8.900000
456.722308	917.359226	8.916667
458.008265	919.765497	8.933333
458.812488	922.744692	8.950000
459.776649	926.487766	8.966667
460.901839	929.366965	8.983333
461.545568	932.413222	9.000000
462.830965	935.654649	9.016667
464.117181	937.673460	9.033333
464.760353	941.550272	9.050000
465.725043	944.503972	9.066667
466.528969	947.926604	9.083333
467.332065	952.588234	9.100000
468.777377	956.629352	9.116667
469.581015	960.482169	9.133333
470.544858	964.700145	9.150000
471.829946	968.403045	9.166667
472.794335	971.805954	9.183333
473.919485	974.744608	9.200000
474.562339	979.096408	9.216667
475.847411	982.822606	9.233333
476.812345	985.412951	9.250000
477.937204	988.786501	9.266667
479.062899	990.912034	9.283333
479.546087	994.092237	9.300000
480.670096	998.734558	9.316667
481.634456	1002.181500	9.333333
482.598812	1005.633394	9.350000
483.562602	1009.931147	9.366667
484.526387	1014.236252	9.383333
485.811421	1018.018910	9.400000
486.936815	1020.594854	9.416667
487.901720	1023.227826	9.433333
488.705570	1026.763989	9.450000
489.669902	1030.251132	9.466667
490.633095	1035.440661	9.483333
491.758190	1038.460980	9.500000
492.722512	1041.964627	9.516667
494.008088	1044.939456	9.533333
494.651431	1048.560239	9.550000
495.615457	1052.505308	9.566667
496.739965	1056.402642	9.583333
497.543784	1059.985449	9.600000
498.667996	1064.323306	9.616667
499.632006	1068.292786	9.633333
500.595435	1073.128728	9.650000
502.041182	1076.519558	9.666667
502.684785	1079.752802	9.683333
504.130815	1082.721333	9.700000
504.774413	1085.962410	9.716667
505.577914	1090.019217	9.733333
506.541607	1094.461879	9.750000
507.666071	1098.424134	9.766667
508.629463	1103.315657	9.783333
509.914988	1106.367055	9.800000
510.719052	1109.583261	9.816667
511.843793	1113.132484	9.833333
512.647852	1116.357022	9.850000
513.771707	1121.227943	9.866667
514.897025	1123.917206	9.883333
515.540001	1128.085466	9.900000
516.985109	1132.431398	9.916667
517.307400	1136.279627	9.933333
518.752203	1141.079489	9.950000
519.876915	1144.671844	9.966667
520.841434	1147.881119	9.983333
521.966436	1151.040911	10.000000
522.770760	1153.869077	10.016667
523.573896	1158.471980	10.033333
524.376729	1163.525950	10.050000
525.821499	1168.375218	10.066667
526.946782	1171.114712	10.083333
527.911877	1173.465288	10.100000
528.876073	1177.155311	10.116667
529.840267	1180.850304	10.133333
530.483486	1184.656830	10.150000
531.768044	1189.150209	10.166667
532.571441	1193.362575	10.183333
533.534718	1198.425437	10.200000
534.820165	1201.592705	10.216667
535.784035	1205.770186	10.233333
536.587114	1210.457551	10.250000
537.872552	1213.639194	10.266667
538.676530	1216.984270	10.283333
539.800870	1221.131284	10.300000
540.604539	1224.937898	10.316667
541.567779	1230.056463	10.333333
542.852896	1233.715383	10.350000
543.816735	1237.940025	10.366667
544.942275	1240.297403	10.383333
545.585136	1244.637945	10.400000
546.548658	1249.334717	10.416667
547.833452	1253.476039	10.433333
548.637093	1257.325058	10.450000
549.761087	1261.989062	10.466667
551.046791	1264.773240	10.483333
551.529143	1269.202044	10.500000
552.653432	1273.425255	10.516667
553.295645	1278.733907	10.533333
554.580102	1283.378735	10.550000
555.704068	1288.083867	10.566667
556.828650	1291.871813	10.583333
557.953847	1294.739310	10.600000
558.757762	1298.178599	10.616667
559.561053	1302.549201	10.633333
560.846107	1306.303285	10.650000
561.488905	1310.738261	10.666667
562.934437	1314.450195	10.683333
563.738337	1317.912091	10.700000
564.862892	1321.738962	10.716667
565.666473	1325.676205	10.733333
566.630223	1330.033320	10.750000
567.433170	1334.917446	10.766667
568.557082	1339.703685	10.783333
569.681304	1344.027787	10.800000
570.966322	1347.835360	10.816667
571.288110	1352.434032	10.833333
572.893144	1357.561013	10.850000
573.697011	1361.071520	10.866667
574.660728	1365.478306	10.883333
575.624440	1369.891223	10.900000
576.909119	1374.205329	10.916667
577.873776	1377.207913	10.933333
578.837796	1381.162763	10.950000
579.641645	1384.699847	10.966667
580.765187	1390.039045	10.983333
581.407907	1394.591156	11.000000
582.691923	1399.894128	11.016667
583.977533	1402.817128	11.033333
584.941531	1406.804115	11.050000
585.745682	1409.891116	11.066667
586.709353	1414.366139	11.083333
587.512535	1418.899578	11.100000
588.636360	1423.815016	11.116667
589.760504	1428.256810	11.133333
590.884965	1432.223148	11.150000
592.010070	1435.230338	11.166667
592.813555	1439.310024	11.183333
593.777846	1442.859410	11.200000
594.420193	1447.967955	11.216667
595.865284	1452.338793	11.233333
596.507946	1456.976475	11.250000
597.792218	1461.897381	11.266667
598.756166	1465.957554	11.283333
599.880923	1469.484016	11.300000
600.844865	1473.553653	11.316667
601.809131	1477.140615	11.333333
602.612583	1481.271714	11.350000
603.896830	1486.229365	11.366667
604.861414	1489.340881	11.383333
605.503715	1494.518643	11.400000
606.627464	1499.547919	11.416667
607.751209	1504.584646	11.433333
608.875607	1508.645097	11.450000
610.000002	1512.710582	11.466667
610.803755	1516.391961	11.483333
611.767659	1520.518780	11.500000
612.731560	1524.650599	11.516667
613.695126	1529.281912	11.533333
614.658357	1534.414529	11.550000
615.621914	1539.058740	11.566667
617.067587	1542.561175	11.583333
618.032135	1545.726152	11.600000
618.996349	1549.391353	11.616667
619.961226	1552.065295	11.633333
620.604132	1556.338930	11.650000
621.567670	1561.012817	11.666667
622.530869	1566.192188	11.683333
623.494063	1571.378975	11.700000
624.939041	1575.917690	11.716667
625.581928	1580.219424	11.733333
627.026898	1584.769973	11.750000
627.670115	1588.579909	11.766667
628.954593	1593.193221	11.783333
629.597466	1597.515389	11.800000
630.721452	1602.191979	11.816667
631.845772	1606.370170	11.833333
632.809604	1610.604866	11.850000
633.773432	1614.844569	11.866667
634.737258	1619.089279	11.883333
635.701419	1622.832286	11.900000
636.825722	1627.035076	11.916667
637.468569	1631.397032	11.933333
638.591844	1637.135070	11.950000
639.554628	1642.933291	11.966667
640.999884	1647.056854	11.983333
641.482573	1650.982997	12.000000
642.927138	1656.137849	12.016667
643.891274	1659.919536	12.033333
645.015891	1663.653968	12.050000
645.659052	1667.546075	12.066667
646.943805	1671.750169	12.083333
647.747101	1676.112900	12.100000
648.871706	1679.864300	12.116667
649.674652	1684.750995	12.133333
650.959045	1689.490434	12.150000
651.763019	1692.842423	12.166667
652.726437	1697.694647	12.183333
653.851027	1701.468499	12.200000
654.493123	1706.951274	12.216667
655.937982	1711.668269	12.233333
656.581110	1715.609642	12.250000
657.543814	1721.529049	12.266667
658.828175	1726.315714	12.283333
659.791565	1731.210526	12.300000
660.754951	1736.111505	12.316667
662.040348	1739.352385	12.333333
662.683108	1743.843748	12.350000
663.807667	1747.664971	12.366667
664.610555	1752.637871	12.383333
665.734406	1757.515223	12.400000
666.697769	1762.449603	12.416667
667.821612	1767.339355	12.433333
668.624835	1771.811453	12.450000
669.749022	1776.187016	12.466667
670.551533	1781.722189	12.483333
671.836197	1786.058210	12.500000
672.639406	1790.551421	12.516667
674.084901	1794.318690	12.533333
674.567490	1798.394035	12.550000
675.851431	1803.807752	12.566667
676.654982	1807.791152	12.583333
677.618303	1812.788619	12.600000
678.580908	1818.854421	12.616667
679.705059	1823.283171	12.633333
680.668011	1828.832108	12.650000
681.952639	1833.221541	12.666667
682.595686	1837.284653	12.683333
683.879950	1842.217627	12.700000
684.683475	1846.239160	12.716667
685.485921	1851.869805	12.733333
686.608972	1857.942856	12.750000
687.893218	1862.901338	12.766667
689.017337	1867.379401	12.783333
690.142533	1870.250086	12.800000
690.625072	1874.400095	12.816667
691.909666	1878.840765	12.833333
692.552321	1883.487755	12.850000
693.675340	1889.607649	12.866667
694.638955	1894.165708	12.883333
695.601843	1899.810480	12.900000
696.885692	1905.362281	12.916667
697.850022	1908.853541	12.933333
698.652412	1914.568229	12.950000
699.937340	1918.510157	12.966667
700.579967	1923.200368	12.983333
701.702947	1929.378172	13.000000
702.827382	1933.384767	13.016667
703.790599	1938.536378	13.033333
704.754179	1943.148085	13.050000
705.717388	1948.311461	13.066667
706.680961	1952.933781	13.083333
707.805013	1957.511145	13.100000
708.768578	1962.143554	13.116667
709.892624	1966.731046	13.133333
710.695331	1971.972903	13.150000
711.658886	1976.620964	13.166667
712.622069	1981.824640	13.183333
713.745361	1987.535886	13.200000
715.029872	1992.101025	13.216667
715.673185	1995.765957	13.233333
716.636353	2000.992594	13.250000
717.759999	2006.175636	13.266667
718.723529	2010.860633	13.283333
719.847168	2016.055515	13.300000
720.811435	2019.640942	13.316667
721.452500	2026.662779	13.333333
722.896719	2032.333396	13.350000
723.700121	2036.539003	13.366667
724.502399	2042.421257	13.383333
725.625638	2048.211711	13.400000
726.749247	2053.450726	13.416667
728.194568	2057.477898	13.433333
728.838221	2060.637253	13.450000
729.802087	2064.820188	13.466667
730.926058	2069.518401	13.483333
731.728684	2074.882082	13.500000
732.692165	2079.640445	13.516667
733.494783	2085.015849	13.533333
734.778091	2091.375605	13.550000
735.902421	2095.538079	13.566667
736.866266	2099.753988	13.583333
737.990590	2103.924537	13.600000
738.311740	2109.476515	13.616667
739.272921	2117.667825	13.633333
740.556199	2124.073049	13.650000
741.679367	2129.968807	13.666667
742.802912	2135.303780	13.683333
744.088460	2138.320700	13.700000
744.891795	2142.625768	13.716667
745.855610	2146.885622	13.733333
746.658175	2152.339003	13.750000
747.942185	2157.651106	13.766667
748.745891	2161.402800	13.783333
749.387579	2167.493915	13.800000
750.671194	2173.396090	13.816667
751.633837	2179.403950	13.833333
752.918211	2184.173476	13.850000
754.042868	2187.848531	13.866667
754.685304	2192.823187	13.883333
755.647931	2198.855657	13.900000
756.449685	2205.520706	13.916667
757.572785	2211.519858	13.933333
758.856749	2216.900156	13.950000
759.659648	2221.855337	13.966667
760.782734	2227.875054	13.983333
761.907367	2231.585399	14.000000
762.709868	2237.135383	14.016667
763.994590	2241.384638	14.033333
764.636990	2246.413800	14.050000
766.081410	2251.785512	14.066667
766.724972	2255.079816	14.083333
767.527455	2260.656502	14.100000
768.971473	2266.627577	14.116667
769.453373	2271.731040	14.133333
770.736117	2278.933088	14.150000
772.021205	2282.635954	14.166667
772.824451	2287.073022	14.183333
773.626910	2292.685681	14.200000
774.589061	2299.429013	14.216667
775.551206	2306.181227	14.233333
776.835492	2311.081468	14.250000
777.638327	2316.132289	14.266667
778.921817	2322.220807	14.283333
779.725435	2326.103676	14.300000
780.688347	2331.711290	14.316667
781.812133	2336.686033	14.333333
782.775829	2341.123060	14.350000
784.060488	2345.467405	14.366667
784.703611	2349.417082	14.383333
785.505228	2356.284748	14.400000
786.949565	2361.781170	14.416667
787.913246	2366.240807	14.433333
788.716044	2371.347141	14.450000
789.678922	2377.005303	14.466667
790.480915	2383.313578	14.483333
791.763950	2390.081217	14.500000
792.727614	2394.565881	14.516667
793.850957	2400.201437	14.533333
794.975098	2404.647049	14.550000
795.778271	2409.192900	14.566667
796.741924	2413.694675	14.583333
797.383405	2420.095366	14.600000
798.666809	2426.311395	14.616667
799.951014	2431.333087	14.633333
800.754172	2435.902418	14.650000
801.716599	2442.233719	14.666667
802.679829	2447.367172	14.683333
803.481361	2454.363352	14.700000
804.603850	2461.272636	14.716667
805.566257	2467.633948	14.733333
807.171804	2471.995528	14.750000
807.654786	2475.484594	14.766667
808.938958	2480.555116	14.783333
809.742087	2485.167416	14.800000
810.704881	2490.950345	14.816667
811.988635	2496.644068	14.833333
812.631273	2501.318078	14.850000
813.593648	2507.727467	14.866667
814.877390	2513.439414	14.883333
816.001872	2517.374861	14.900000
816.804571	2522.629781	14.916667
817.607675	2527.278607	14.933333
818.569620	2534.330678	14.950000
819.852522	2541.296595	14.966667
820.494723	2546.621971	14.983333
821.457062	2553.084780	15.000000
822.900841	2559.412737	15.016667
823.864406	2564.045581	15.033333
824.988038	2569.250504	15.050000
825.791528	2573.323383	15.066667
826.754673	2578.584776	15.083333
827.716986	2585.085391	15.100000
828.679709	2590.975751	15.116667
829.802495	2597.443433	15.133333
830.766038	2602.108979	15.150000
831.890060	2606.731310	15.166667
833.014079	2611.357721	15.183333
833.656651	2616.129858	15.200000
834.779417	2622.627233	15.216667
835.581631	2628.604823	15.233333
836.383008	2635.833236	15.250000
837.504923	2643.599433	15.266667
838.949049	2649.410373	15.283333
840.073881	2652.824707	15.300000
841.198292	2656.865950	15.316667
841.681613	2659.848547	15.333333
842.482544	2667.742204	15.350000
843.766170	2673.626180	15.366667
844.567929	2680.284278	15.383333
845.851967	2685.553936	15.400000
846.814618	2691.550668	15.416667
847.938589	2696.249417	15.433333
848.741173	2701.675105	15.450000
850.025198	2706.965332	15.466667
850.828620	2711.140753	15.483333
851.469868	2717.888839	15.500000
852.752613	2725.088815	15.516667
853.715660	2730.494732	15.533333
854.838761	2736.491705	15.550000
855.963131	2740.595279	15.566667
856.604781	2746.743015	15.583333
857.727446	2753.391364	15.600000
858.690050	2759.458849	15.616667
859.974038	2764.803793	15.633333
860.777005	2769.657520	15.650000
861.740024	2775.105300	15.666667
862.702613	2781.195375	15.683333
863.987014	2785.923129	15.700000
864.790397	2790.156272	15.716667
865.752976	2796.262080	15.733333
866.715978	2801.734791	15.750000
867.517639	2808.538862	15.766667
868.478916	2816.585461	15.783333
869.762439	2822.625390	15.800000
870.724565	2829.406354	15.816667
872.008509	2834.816917	15.833333
872.651387	2839.131563	15.850000
873.773982	2845.884864	15.866667
874.898297	2850.068688	15.883333
875.539009	2857.617944	15.900000
876.822935	2863.054774	15.916667
877.785896	2868.589105	15.933333
878.748421	2874.775093	15.950000
879.872289	2879.626949	15.966667
880.996155	2884.482902	15.983333
881.798622	2890.083185	16.000000
882.922482	2894.947786	16.016667
883.564461	2900.603693	16.033333
884.526093	2908.122028	16.050000
885.326803	2916.345918	16.066667
886.609383	2923.790985	16.083333
887.893269	2929.288931	16.100000
888.856627	2934.231335	16.116667
889.980462	2939.131937	16.133333
890.622853	2944.174158	16.150000
891.744931	2951.699135	16.166667
892.868757	2956.613954	16.183333
893.671180	2962.279599	16.200000
894.954602	2968.468887	16.216667
895.757458	2973.488907	16.233333
897.041313	2979.032713	16.250000
898.005965	2982.043795	16.266667
898.647892	2987.778348	16.283333
899.610335	2994.084970	16.300000
900.732814	3001.011254	16.316667
901.695249	3007.331049	16.333333
902.818602	3012.951344	16.350000
903.620991	3018.667845	16.366667
905.065299	3024.207396	16.383333
905.868568	3028.610532	16.400000
906.831428	3034.295749	16.416667
907.794285	3039.986074	16.433333
908.435288	3047.099209	16.450000
909.718208	3054.038268	16.466667
910.841088	3060.365529	16.483333
911.803929	3066.079071	16.500000
912.927247	3071.752418	16.516667
913.569121	3077.566762	16.533333
914.531058	3084.629715	16.550000
915.975325	3090.229098	16.566667
916.616740	3096.727995	16.583333
917.900072	3103.052369	16.600000
918.863336	3108.134525	16.616667
919.665219	3114.605750	16.633333
920.788059	3120.993003	16.650000
921.589934	3127.476728	16.666667
923.034176	3133.114691	16.683333
923.676464	3138.310729	16.700000
924.638808	3144.766381	16.716667
926.083490	3149.746520	16.733333
926.725318	3155.629530	16.750000
928.009062	3161.337845	16.766667
928.812720	3165.161256	16.783333
929.614566	3171.688347	16.800000
930.736915	3178.808055	16.816667
931.538298	3186.025038	16.833333
932.661091	3192.482485	16.850000
933.784334	3198.268262	16.866667
934.746638	3204.782513	16.883333
936.352223	3209.086808	16.900000
936.674422	3213.072645	16.916667
937.636261	3220.281496	16.933333
938.759032	3226.772552	16.950000
939.399445	3234.766522	16.966667
941.002731	3242.501799	16.983333
941.805899	3247.055450	17.000000
943.250985	3251.434011	17.016667
944.055065	3254.627177	17.033333
944.535893	3261.329949	17.050000
945.497239	3269.274615	17.066667
946.458120	3277.913684	17.083333
947.579934	3285.832623	17.100000
948.864061	3290.968986	17.116667
949.504886	3298.348776	17.133333
950.949487	3303.450544	17.150000
951.912646	3308.689458	17.166667
952.554382	3314.709899	17.183333
953.998512	3320.514056	17.200000
954.479761	3326.588909	17.216667
955.923422	3333.094063	17.233333
956.886565	3338.355860	17.250000
957.688300	3345.049242	17.266667
958.971933	3350.924148	17.283333
959.613644	3356.980718	17.300000
960.896341	3364.252886	17.316667
962.020878	3368.106606	17.333333
962.823990	3372.745087	17.350000
963.786647	3378.732291	17.366667
964.587890	3386.159585	17.383333
965.388662	3394.290642	17.400000
967.153704	3400.076307	17.416667
967.796322	3404.780018	17.433333
968.919441	3410.750670	17.450000
969.882544	3416.072013	17.466667
970.524219	3422.183954	17.483333
971.807338	3428.825138	17.500000
972.448067	3436.347973	17.516667
973.891657	3442.958736	17.533333
974.693795	3449.049494	17.550000
975.816419	3455.759849	17.566667
976.939979	3461.071567	17.583333
977.420678	3467.967982	17.600000
978.863304	3476.016274	17.616667
979.987326	3480.639073	17.633333
980.307534	3487.597124	17.650000
982.232528	3494.125903	17.666667
982.553673	3499.684400	17.683333
983.997223	3506.355372	17.700000
984.961699	3509.628081	17.716667
985.602847	3516.526010	17.733333
986.724953	3524.008017	17.750000
987.526571	3530.875640	17.766667
988.808671	3539.038339	17.783333
989.932189	3544.413006	17.800000
990.573315	3551.342812	17.816667
991.856353	3558.105739	17.833333
992.336992	3565.091284	17.850000
993.940025	3573.205524	17.866667
994.903047	3578.648959	17.883333
995.705109	3584.853238	17.900000
996.828126	3590.976344	17.916667
997.951139	3597.104644	17.933333
998.754149	3601.893838	17.950000
999.877636	3607.315663	17.966667
1000.358245	3614.346205	17.983333
1001.639802	3623.318803	18.000000
1003.084716	3627.952972	18.016667
1003.726272	3634.241207	18.033333
1004.849261	3640.405711	18.050000
1005.651289	3646.661206	18.066667
1006.613310	3653.598676	18.083333
1007.574844	3661.262887	18.100000
1008.214450	3670.462681	18.116667
1009.817404	3678.694267	18.133333
1010.780373	3684.215646	18.150000
1011.903335	3690.421415	18.166667
1013.026777	3695.908814	18.183333
1013.507333	3703.019204	18.200000
1014.951726	3708.430514	18.216667
1015.754203	3714.016529	18.233333
1016.555218	3721.783763	18.250000
1017.838150	3728.704419	18.266667
1018.961574	3734.220057	18.283333
1019.764038	3739.824859	18.300000
1020.887456	3745.348743	18.316667
1021.367493	3753.232109	18.333333
1022.649429	3761.640079	18.350000
1023.449434	3770.914441	18.366667
1024.893304	3777.106709	18.383333
1025.695258	3783.473597	18.400000
1027.140102	3788.212911	18.416667
1027.943520	3792.392589	18.433333
1028.745465	3798.772122	18.450000
1029.385455	3807.398706	18.466667
1030.506873	3815.907592	18.483333
1031.467314	3825.202557	18.500000
1033.072126	3830.662032	18.516667
1033.875529	3834.864738	18.533333
1034.838422	3840.500024	18.550000
1035.640342	3846.918237	18.566667
1036.440281	3856.291384	18.583333
1037.561664	3864.852691	18.600000
1038.684031	3871.945109	18.616667
1039.646411	3878.346326	18.633333
1040.929744	3884.668889	18.650000
1042.053588	3889.557501	18.666667
1043.016455	3895.232148	18.683333
1043.658860	3900.253133	18.700000
1044.620231	3908.161445	18.716667
1045.742074	3916.035603	18.733333
1046.703933	3923.215777	18.750000
1047.986743	3930.318853	18.766667
1048.950089	3935.278166	18.783333
1049.751957	3941.772191	18.800000
1050.713801	3948.975258	18.816667
1051.514662	3956.972511	18.833333
1052.796951	3964.852609	18.850000
1053.919759	3971.286847	18.866667
1054.882086	3977.767818	18.883333
1056.005890	3982.715320	18.900000
1056.486778	3989.329938	18.916667
1057.448091	3997.324580	18.933333
1058.568870	4006.786389	18.950000
1059.852134	4013.212635	18.966667
1060.813935	4020.478518	18.983333
1061.937721	4025.452716	19.000000
1062.900524	4031.224048	19.016667
1063.702341	4037.793930	19.033333
1064.502640	4046.630441	19.050000
1065.945854	4053.801918	19.066667
1066.909149	4058.838185	19.083333
1067.710952	4065.429758	19.100000
1068.994690	4071.146999	19.116667
1069.635502	4078.546051	19.133333
1070.436787	4085.910256	19.150000
1071.718993	4093.915554	19.166667
1072.520269	4101.293024	19.183333
1073.641479	4110.113312	19.200000
1074.442236	4118.264574	19.216667
1075.884899	4126.259808	19.233333
1077.008641	4131.299739	19.250000
1077.971904	4136.383755	19.266667
1078.935165	4141.470956	19.283333
1079.737435	4147.364590	19.300000
1080.860146	4153.943719	19.316667
1081.982854	4160.528075	19.333333
1082.786139	4164.906972	19.350000
1083.586862	4173.110608	19.366667
1084.870037	4179.669306	19.383333
1085.510786	4187.161647	19.400000
1086.631936	4196.071337	19.416667
1087.431611	4205.838598	19.433333
1088.714254	4213.190643	19.450000
1089.675939	4220.630170	19.466667
1090.798611	4227.266409	19.483333
1091.921281	4233.907881	19.500000
1093.044979	4239.014201	19.516667
1093.686211	4245.786216	19.533333
1094.969347	4252.401812	19.550000
1095.771049	4259.143728	19.566667
1096.893702	4265.810135	19.583333
1097.856392	4271.749178	19.600000
1098.657566	4279.279432	19.616667
1099.458736	4286.815975	19.633333
1100.740294	4295.787750	19.650000
1101.702450	4302.522624	19.666667
1102.824561	4309.998517	19.683333
1103.304239	4318.417869	19.700000
1104.906729	4327.341608	19.716667
1105.708914	4333.362694	19.733333
1107.153525	4338.449430	19.750000
1107.795228	4344.518265	19.766667
1108.917314	4352.030061	19.783333
1110.041487	4356.428396	19.800000
1111.004658	4361.649325	19.816667
1111.485351	4368.554680	19.833333
1112.926805	4378.351985	19.850000
1113.408014	4384.487571	19.866667
1115.010458	4393.479601	19.883333
1115.974139	4397.939366	19.900000
1116.775767	4404.792420	19.916667
1117.577391	4411.650604	19.933333
1118.215379	4423.264171	19.950000
1119.817797	4432.295555	19.966667
1120.941415	4437.521991	19.983333
1121.904553	4442.791247	20.000000
1123.188115	4448.771967	20.016667
1123.670348	4453.378886	20.033333
1124.792372	4460.983121	20.050000
1125.754973	4467.055346	20.066667
1126.554979	4476.329188	20.083333
1127.676990	4483.952610	20.100000
1128.638521	4491.621837	20.116667
1129.921000	4499.218743	20.133333
1130.884114	4504.524713	20.150000
1131.846695	4510.626279	20.166667
1132.647735	4518.357209	20.183333
1133.609246	4526.055211	20.200000
1134.569689	4535.348251	20.216667
1135.852676	4542.186914	20.233333
1136.653699	4549.943835	20.250000
1137.776202	4556.832696	20.266667
1139.220722	4562.055379	20.283333
1139.702383	4567.515745	20.300000
1140.824343	4575.215662	20.316667
1141.786892	4581.364629	20.333333
1142.747833	4589.913887	20.350000
1143.870852	4596.033689	20.366667
1144.350356	4604.712994	20.383333
1145.632236	4613.205415	20.400000
1146.754170	4620.943167	20.416667
1147.875564	4629.489290	20.433333
1149.160653	4633.189583	20.450000
1149.640673	4641.099204	20.466667
1150.762593	4648.860128	20.483333
1151.402002	4658.351932	20.500000
1152.521755	4669.346845	20.516667
1153.965690	4675.442158	20.533333
1155.089751	4680.006818	20.550000
1156.213810	4684.573907	20.566667
1156.856440	4689.259076	20.583333
1157.335889	4698.021451	20.600000
1158.777645	4707.368554	20.616667
1159.900070	4714.375389	20.633333
1160.539979	4723.121425	20.650000
1162.144908	4728.404844	20.666667
1162.464944	4735.619253	20.683333
1163.747287	4743.419655	20.700000
1164.547655	4752.153117	20.716667
1165.829444	4760.779425	20.733333
1166.630346	4768.715177	20.750000
1167.752195	4776.580869	20.766667
1169.357648	4781.082004	20.783333
1170.000793	4785.000222	20.800000
1170.801681	4792.955900	20.816667
1172.085632	4798.357204	20.833333
1172.566109	4805.583927	20.850000
1173.847866	4814.258625	20.866667
1174.649834	4820.603505	20.883333
1175.611179	4828.549860	20.900000
1176.893471	4836.426725	20.916667
1177.373381	4844.499631	20.933333
1178.654566	4854.028682	20.950000
1179.776368	4861.964021	20.966667
1180.577216	4869.981411	20.983333
1182.019960	4877.854060	21.000000
1182.661426	4884.277688	21.016667
1183.943687	4892.199795	21.033333
1184.746724	4896.948652	21.050000
1185.707476	4905.780233	21.066667
1186.991383	4911.246988	21.083333
1187.793309	4917.654527	21.100000
1189.076105	4924.778684	21.116667
1189.878578	4930.369271	21.133333
1190.357885	4939.343070	21.150000
1191.639008	4948.964062	21.166667
1192.922343	4955.283359	21.183333
1193.563221	4962.584726	21.200000
1195.006470	4969.704275	21.216667
1195.486865	4977.053334	21.233333
1196.768520	4985.880654	21.250000
1197.730332	4993.129176	21.266667
1198.852616	5000.345659	21.283333
1199.657847	5001.821740	21.300000
1199.664600	4997.666304	21.316667
1199.356523	4984.453621	21.333333
1198.892402	4964.663784	21.350000
1197.949048	4941.713625	21.366667
1197.487640	4917.873755	21.383333
1195.742397	4894.386312	21.400000
1195.601871	4870.573681	21.416667
1194.018681	4844.693391	21.433333
1192.913587	4823.669706	21.450000
1191.968393	4803.466171	21.466667
1190.703315	4781.747501	21.483333
1189.757523	4762.437440	21.500000
1188.973814	4740.689007	21.516667
1187.546544	4721.569295	21.533333
1186.921629	4702.293274	21.550000
1185.655869	4681.591870	21.566667
1184.708873	4664.078305	21.583333
1183.923950	4644.142449	21.600000
1182.497097	4624.399909	21.616667
1181.550036	4606.984103	21.633333
1180.925515	4587.120000	21.650000
1179.658529	4568.248496	21.666667
1179.033957	4548.459410	21.683333
1177.445970	4529.738846	21.700000
1176.659276	4512.446616	21.716667
1175.713148	4493.637677	21.733333
1174.766466	4475.655534	21.750000
1173.821349	4455.336258	21.766667
1172.553668	4437.502486	21.783333
1171.606918	4419.622407	21.800000
1170.338666	4402.639850	21.816667
1169.068817	4388.040649	21.833333
1168.762863	4371.658800	21.850000
1167.495079	4353.978908	21.866667
1166.707656	4337.773108	21.883333
1165.922304	4318.477711	21.900000
1164.494498	4300.158374	21.916667
1163.548099	4281.754470	21.933333
1162.600637	4264.935432	21.950000
1161.332202	4248.226760	21.966667
1160.544660	4232.199288	21.983333
1159.596624	4216.239290	22.000000

1158.810592	4197.957421	22.016667
1157.383143	4179.105056	22.033333
1156.273027	4165.576507	22.050000
1155.485904	4148.924395	22.066667
1154.376783	4133.911846	22.083333
1153.750099	4117.275731	22.100000
1152.483016	4098.548119	22.116667
1151.534826	4082.817318	22.133333
1150.426140	4067.154703	22.150000
1149.317943	4050.761845	22.166667
1148.529668	4035.829123	22.183333
1147.581910	4019.452097	22.200000
1146.313178	4003.187383	22.216667
1145.686335	3986.787397	22.233333
1144.257085	3970.623903	22.250000
1143.307741	3956.615321	22.266667
1142.520364	3940.341870	22.283333
1141.250032	3926.464448	22.300000
1140.623095	3910.204841	22.316667
1139.354228	3894.141559	22.333333
1138.405300	3879.511480	22.350000
1137.457847	3862.679733	22.366667
1136.026457	3849.710009	22.383333
1135.236469	3837.332749	22.400000
1134.448450	3822.018369	22.416667
1133.499934	3806.773071	22.433333
1132.873836	3789.262751	22.450000
1131.445323	3771.998467	22.466667
1130.496256	3757.575491	22.483333
1129.548154	3741.713296	22.500000
1128.118107	3726.738558	22.516667
1127.488968	3713.767352	22.533333
1126.380819	3697.302145	22.550000
1125.431667	3683.007375	22.566667
1124.804427	3667.200777	22.583333
1123.696702	3650.103385	22.600000
1122.588954	3633.041442	22.616667
1121.158291	3618.985814	22.633333
1120.208082	3606.267084	22.650000
1119.097864	3592.892084	22.666667
1118.307625	3580.889663	22.683333
1117.518816	3566.753972	22.700000
1116.570950	3550.539004	22.716667
1115.139233	3538.057364	22.733333
1114.671809	3523.197107	22.750000
1112.920536	3508.709694	22.766667
1112.290692	3496.789654	22.783333
1111.502259	3482.091860	22.800000
1110.714283	3466.712774	22.816667
1109.766755	3449.993057	22.833333
1108.497773	3434.101115	22.850000
1107.387832	3420.310503	22.866667
1106.438355	3406.500937	22.883333
1105.328381	3392.759707	22.900000
1104.539350	3378.955622	22.916667
1102.947437	3366.094578	22.933333
1102.156970	3354.433300	22.950000
1101.367892	3340.698121	22.966667
1100.418319	3327.031425	22.983333
1099.308715	3312.738704	23.000000
1098.519587	3299.078358	23.016667
1097.249932	3284.190678	23.033333
1096.621249	3270.537658	23.050000
1095.352480	3254.327928	23.066667
1094.080459	3242.970973	23.083333
1093.451266	3230.079914	23.100000
1092.341538	3215.972132	23.116667
1091.391813	3202.531754	23.133333
1090.603009	3188.387888	23.150000
1089.333662	3173.040518	23.166667
1088.223405	3159.723452	23.183333
1087.112220	3147.790501	23.200000
1086.482916	3135.064641	23.216667
1085.051651	3121.907462	23.233333
1083.939971	3110.714266	23.250000
1083.471103	3098.008745	23.266667
1082.200272	3084.875948	23.283333
1081.570894	3072.260645	23.300000
1080.140451	3057.877884	23.316667
1079.350111	3046.025806	23.333333
1078.561104	3032.185817	23.350000
1077.612046	3017.750139	23.366667
1076.341114	3004.767829	23.383333
1075.551607	2991.674225	23.400000
1074.602937	2976.658155	23.416667
1073.493322	2962.382571	23.433333
1072.221877	2950.166573	23.450000
1071.432300	2937.175897	23.466667
1070.160824	2925.005669	23.483333
1069.370334	2913.378840	23.500000
1068.259310	2901.206342	23.516667
1067.309190	2888.354615	23.533333
1066.358177	2876.836533	23.550000
1065.086190	2865.430112	23.566667
1064.135587	2853.299588	23.583333
1063.183224	2843.796566	23.600000
1062.394382	2829.709131	23.616667
1061.444606	2816.346086	23.633333
1060.655725	2802.316378	23.650000
1059.384517	2789.747197	23.666667
1058.433821	2777.755427	23.683333
1057.323493	2764.544197	23.700000
1056.212715	2752.002719	23.716667
1055.422454	2740.034603	23.733333
1054.151163	2727.587474	23.750000
1053.360443	2716.303958	23.766667
1052.410939	2702.534740	23.783333
1051.300080	2690.114931	23.800000
1050.027872	2679.037402	23.816667
1049.237094	2667.839960	23.833333
1047.964435	2657.435897	23.850000
1047.173207	2646.909528	23.866667
1045.900524	2636.541240	23.883333
1045.430235	2625.956714	23.900000
1044.641501	2611.708501	23.916667
1043.530522	2599.469416	23.933333
1042.580427	2586.581403	23.950000
1040.987550	2575.159121	23.966667
1040.196647	2564.148117	23.983333
1039.245667	2552.580917	24.000000
1038.455570	2540.366739	24.016667
1037.344078	2528.892133	24.033333
1036.393468	2516.772907	24.050000
1035.443256	2504.059871	24.066667
1034.493025	2491.373798	24.083333
1033.220575	2480.656985	24.100000
1032.269900	2468.635786	24.116667
1030.836117	2459.236014	24.133333
1029.722057	2451.595617	24.150000
1029.412448	2440.667919	24.166667
1028.462126	2428.118303	24.183333
1027.671860	2416.157279	24.200000
1026.240464	2403.195403	24.216667
1025.288868	2392.547280	24.233333
1024.176371	2382.572732	24.250000
1023.064268	2372.011171	24.266667
1022.112228	2362.025405	24.283333
1021.642834	2350.105513	24.300000
1020.371819	2337.247201	24.316667
1019.582231	2324.274443	24.333333
1018.149892	2312.720870	24.350000
1017.198182	2302.242684	24.366667
1016.246459	2291.784357	24.383333
1014.972960	2282.633358	24.400000
1014.503455	2270.878990	24.416667
1013.070245	2260.625154	24.433333
1012.118072	2250.838530	24.450000
1011.326766	2240.430062	24.466667
1010.053604	2230.776782	24.483333
1009.422754	2220.358396	24.500000
1008.151142	2208.390270	24.516667
1007.199299	2198.111815	24.533333
1006.408317	2187.219035	24.550000
1005.296355	2176.445576	24.566667
1004.666217	2164.964958	24.583333
1003.234429	2152.588589	24.600000
1002.121642	2143.047662	24.616667
1001.651550	2132.169730	24.633333
1000.218934	2121.028461	24.650000
999.427460	2110.870749	24.666667
998.155296	2099.727288	24.683333
996.880804	2092.059127	24.700000
996.088906	2082.532974	24.716667
994.975647	2073.695897	24.733333
994.344209	2064.154939	24.750000
993.232076	2053.636652	24.766667
992.279648	2044.231376	24.783333
991.488834	2033.087617	24.800000
990.216175	2022.683773	24.816667
989.264087	2012.770107	24.833333
988.473605	2001.130452	24.850000
987.201278	1990.230009	24.866667
986.570490	1979.719277	24.883333
985.298508	1968.304811	24.900000
984.185864	1958.549601	24.916667
983.234065	1948.205129	24.933333
982.121393	1938.490747	24.950000
981.007962	1929.911068	24.966667
980.055003	1921.297450	24.983333
978.941178	1913.304830	25.000000
978.470763	1902.908728	25.016667
976.876580	1893.436493	25.033333
976.244543	1884.789879	25.050000
975.132153	1874.654491	25.066667
974.179127	1866.141835	25.083333
973.548528	1855.348165	25.100000
972.276347	1844.230942	25.116667
971.163166	1835.277305	25.133333
970.371305	1825.695512	25.150000
968.937498	1816.333973	25.166667
968.627061	1806.641239	25.183333
967.194317	1795.692461	25.200000
966.563248	1785.601567	25.216667
965.130108	1775.244105	25.233333
964.176958	1766.915461	25.250000
963.224518	1757.526692	25.266667
961.790254	1748.845721	25.283333
960.996477	1742.124455	25.300000
960.204128	1733.273075	25.316667
958.929957	1725.124816	25.333333
958.458552	1716.206616	25.350000
957.507109	1705.330159	25.366667
956.233970	1695.642856	25.383333
955.442267	1685.825711	25.400000
953.847776	1676.812351	25.416667
953.054278	1669.674904	25.433333
952.100994	1661.546994	25.450000
951.629855	1652.231294	25.466667
950.839491	1640.415666	25.483333
949.406469	1629.881157	25.500000
948.132865	1620.887677	25.516667
947.180564	1611.291556	25.533333
945.745752	1603.429006	25.550000
945.113351	1595.327114	25.566667
943.999486	1587.393959	25.583333
943.206579	1579.374312	25.600000
942.415043	1569.307740	25.616667
941.141349	1560.447693	25.633333
940.027439	1552.583109	25.650000
939.074345	1544.170535	25.666667
938.281381	1536.235747	25.683333
937.489775	1526.275021	25.700000
935.895389	1517.104423	25.716667
935.262874	1509.171887	25.733333
934.310398	1499.836438	25.750000
933.197085	1491.080311	25.766667
932.404727	1482.240992	25.783333
931.291387	1473.524414	25.800000
930.338855	1464.273439	25.816667
929.225488	1455.597526	25.833333
928.433077	1446.838124	25.850000
927.320018	1437.702430	25.866667
925.724489	1430.238612	25.883333
925.091190	1423.475018	25.900000
923.977428	1415.389027	25.916667
923.023474	1408.259874	25.933333
922.391143	1400.051646	25.950000
921.278339	1390.536306	25.966667
920.485828	1381.925853	25.983333
919.211849	1373.490896	26.000000
918.097685	1366.004054	26.016667
917.304808	1357.939688	26.033333
916.352089	1348.968765	26.050000
915.238543	1340.558768	26.066667
914.124659	1332.654426	26.083333
913.331733	1324.663457	26.100000
912.218149	1316.310566	26.116667
911.104229	1308.460191	26.133333
910.150136	1301.538842	26.150000
909.357808	1292.655598	26.166667
908.244174	1284.378455	26.183333
907.291011	1276.068735	26.200000
906.016865	1267.883484	26.216667
904.902233	1261.095066	26.233333
904.269048	1254.163124	26.250000
903.155033	1246.452821	26.266667
902.201493	1238.707671	26.283333
901.247940	1230.980110	26.300000
899.973405	1223.375271	26.316667
899.501600	1215.054644	26.333333
898.066870	1207.069309	26.350000
897.112955	1199.882606	26.366667
896.319828	1192.191369	26.383333
895.205719	1184.623103	26.400000
894.091598	1177.072480	26.416667
893.137639	1169.951078	26.433333
892.344466	1162.329049	26.450000
891.230619	1154.367912	26.466667
889.795171	1147.454811	26.483333
889.161831	1140.753322	26.500000
888.208434	1132.793030	26.516667
887.093925	1125.822015	26.533333
886.300989	1117.845944	26.550000
885.187069	1109.995549	26.566667
884.072830	1102.620048	26.583333
883.118457	1096.117523	26.600000
882.164074	1089.628713	26.616667
881.371077	1081.743312	26.633333
880.096308	1074.488302	26.650000
878.981409	1068.098379	26.666667
878.026987	1061.668986	26.683333
877.233342	1054.751510	26.700000
876.280099	1046.560493	26.716667
875.326245	1039.283918	26.733333
874.212191	1031.632970	26.750000
873.418797	1024.339173	26.766667
871.983450	1017.276535	26.783333
871.350222	1010.406616	26.800000
870.236414	1002.388986	26.816667
869.282192	995.659948	26.833333
868.489034	988.014697	26.850000
867.214113	980.987745	26.866667
866.260443	973.434281	26.883333
864.984913	967.315604	26.900000
863.869859	961.157078	26.916667
863.075477	955.339223	26.933333
862.120891	949.153533	26.950000
861.487558	942.441614	26.966667
860.373913	934.180956	26.983333
859.098612	927.718993	27.000000
857.983787	921.218878	27.016667
856.868378	915.591188	27.033333
856.234418	909.813903	27.050000
855.441394	901.969153	27.066667
854.648355	894.146194	27.083333
853.213073	886.985090	27.100000
852.259236	879.681842	27.116667
851.144052	873.718817	27.133333
850.189626	867.294137	27.150000
848.753450	861.467576	27.166667
847.958647	856.277641	27.183333
847.164399	850.260388	27.200000
846.209935	843.893095	27.216667
845.255739	837.124561	27.233333
844.301532	830.373547	27.250000
842.865299	824.632234	27.266667
841.910516	818.742021	27.283333
841.115932	813.224267	27.300000
840.000921	807.002610	27.316667
839.367082	801.044784	27.333333
838.252051	794.853255	27.350000
837.297769	788.213678	27.366667
836.343749	781.183424	27.383333
835.550203	774.118355	27.400000
833.953939	767.751125	27.416667
832.998795	762.399066	27.433333
831.722399	757.572315	27.450000
830.927185	752.996069	27.466667
830.132775	747.219895	27.483333
829.178138	741.110021	27.500000
828.383978	734.961080	27.516667
827.269102	728.536942	27.533333
826.314701	722.075715	27.550000
825.199268	716.482416	27.566667
824.244845	710.054170	27.583333
823.129128	704.886103	27.600000
822.013932	698.939639	27.616667
821.219435	693.293398	27.633333
820.585942	686.819456	27.650000
819.150267	680.244828	27.666667
818.195253	674.698802	27.683333
817.079743	669.221287	27.700000
816.124710	663.702578	27.716667
814.848435	658.695873	27.733333
814.214098	653.481442	27.750000
813.098812	647.670019	27.766667
812.143485	642.590910	27.783333
811.188408	637.138644	27.800000
809.912090	632.194213	27.816667
809.277713	627.041608	27.833333
808.162379	621.301108	27.850000
807.207266	615.902523	27.866667
806.412885	610.081908	27.883333
804.976293	604.876872	27.900000
804.181385	599.843740	27.916667
803.065748	594.554896	27.933333
802.431563	589.114135	27.950000
801.477151	582.669369	27.966667
800.522224	576.993946	27.983333
798.925338	571.555102	28.000000
798.130377	566.601624	28.016667
796.693210	562.253578	28.033333
796.058471	557.639255	28.050000
794.781778	553.256524	28.066667
794.307512	548.607286	28.083333
793.352768	542.657879	28.100000
792.076545	537.572850	28.116667
791.282021	531.968046	28.133333
790.166020	527.222083	28.150000
788.889525	522.543521	28.166667
788.415457	517.599423	28.183333
787.139190	512.580932	28.200000
786.344374	507.409518	28.216667
785.389790	501.221739	28.233333
784.434468	496.135776	28.250000
782.997916	490.870348	28.266667
781.721119	486.641926	28.283333
780.925296	482.973646	28.300000
780.130188	478.239632	28.316667
778.853371	474.041298	28.333333
778.379222	469.218764	28.350000
777.103104	463.976436	28.366667
776.147239	459.700626	28.383333
775.352327	454.672496	28.400000
774.236669	449.417087	28.416667
773.602461	444.009756	28.433333
772.326059	439.191624	28.450000
771.370857	433.925876	28.466667
770.094437	429.135977	28.483333
768.817308	425.403333	28.500000
768.021402	421.859038	28.516667
767.386676	417.226537	28.533333
766.109992	412.829593	28.550000
765.154505	407.987922	28.566667
763.716857	404.359490	28.583333
763.402614	400.347925	28.600000
762.126359	395.311326	28.616667
761.009894	391.258546	28.633333
760.053910	387.159988	28.650000
758.937431	383.127736	28.666667
758.141921	378.993582	28.683333
757.186143	374.587352	28.700000
755.909156	370.642765	28.716667
755.434600	366.427780	28.733333
753.997337	362.223888	28.750000
753.362503	357.751072	28.766667
752.407135	352.733985	28.783333
751.130334	348.511296	28.800000
750.334765	344.464335	28.816667
749.378924	340.152089	28.833333
748.102100	335.964230	28.850000
747.467440	331.233139	28.866667
745.708916	327.567962	28.883333
745.555261	323.349942	28.900000
743.957650	318.993915	28.916667
743.001105	315.733079	28.933333
742.044773	312.153435	28.950000
740.767460	308.695293	28.966667
739.971387	305.401443	28.983333
739.175526	301.790853	29.000000
738.219604	297.598892	29.016667
737.102971	293.797601	29.033333
735.825628	290.384691	29.050000
735.350717	286.698152	29.066667
734.234494	282.285745	29.083333
733.117619	278.844739	29.100000
732.482416	274.924282	29.116667
731.044766	271.296721	29.133333
730.249061	267.453214	29.150000
729.132586	263.416843	29.166667
728.015468	260.338627	29.183333
727.219532	256.839727	29.200000
725.942337	253.205341	29.216667
725.146179	250.037907	29.233333
724.510923	246.195837	29.250000
723.233709	242.590607	29.266667
722.277463	238.882273	29.283333
721.000027	235.607835	29.300000
720.043354	232.538350	29.316667
719.247370	229.110509	29.333333
718.451587	225.383167	29.350000
717.013846	221.893054	29.366667
715.896457	219.219728	29.383333
714.939757	216.189570	29.400000
714.464721	212.690913	29.416667
713.026751	209.541781	29.433333
712.230727	206.174117	29.450000
710.953233	202.985669	29.466667
709.996304	200.297418	29.483333
709.039574	197.313230	29.500000
707.761862	194.450137	29.516667
706.965207	192.025168	29.533333
706.008261	189.361804	29.550000
705.051512	186.404961	29.566667
704.415934	183.042746	29.583333
703.298887	179.860021	29.600000
702.181833	176.686026	29.616667
701.064575	173.817434	29.633333
700.107800	170.899204	29.650000
699.311509	167.931297	29.666667
698.194236	165.084714	29.683333
697.559014	161.192453	29.700000
696.602414	158.012259	29.716667
695.164540	154.719509	29.733333
694.047050	152.198010	29.750000
692.929750	149.391432	29.766667
691.811862	147.463891	29.783333
691.176018	144.498711	29.800000
689.898023	142.058631	29.816667
689.261783	139.684977	29.833333
688.144462	136.911097	29.850000
687.026943	134.432127	29.866667
686.230396	131.844917	29.883333
685.112869	129.378087	29.900000
683.995337	126.917338	29.916667
683.359267	124.291085	29.933333
682.242108	121.273377	29.950000
681.285052	118.774814	29.966667
680.328182	115.999052	29.983333
679.531795	113.173359	30.000000
678.575104	110.130327	30.016667
676.976077	107.887446	30.033333
675.858134	106.040287	30.050000
674.740377	103.916784	30.066667
673.782917	102.020637	30.083333
672.985943	100.071081	30.100000
672.028665	97.903958	30.116667
671.392361	95.627101	30.133333
669.953983	93.086612	30.150000
668.835835	91.546763	30.166667
668.038846	89.618561	30.183333
667.081367	87.751597	30.200000
666.445047	85.498144	30.216667
665.327626	82.871685	30.233333
664.210017	80.526879	30.250000
663.413198	78.347119	30.266667
662.295581	76.013834	30.283333
661.177960	73.686619	30.300000
660.059971	71.909625	30.316667
658.941979	70.136539	30.333333
658.144961	68.252458	30.350000
656.866475	66.544631	30.366667
655.908783	64.996034	30.383333
654.790419	63.777782	30.400000
653.832903	61.965291	30.416667
653.196181	60.310690	30.433333
652.559818	58.121981	30.450000
651.281497	56.168177	30.466667
650.484638	54.046764	30.483333
649.206132	52.369705	30.500000
648.409267	50.257559	30.516667
647.451732	48.473711	30.533333
646.494372	46.428365	30.550000
645.376521	44.445488	30.566667
644.258489	42.731842	30.583333
643.300766	41.228406	30.600000
642.022064	39.843129	30.616667
640.743360	38.460868	30.633333
640.106432	37.113902	30.650000
638.988038	35.941933	30.666667
638.030305	34.452609	30.683333
637.393373	33.112571	30.700000
636.114835	31.482917	30.716667
634.996433	30.320882	30.733333
634.359671	28.727804	30.750000
633.080777	27.628191	30.766667
632.444011	26.040635	30.783333
631.325777	24.629019	30.800000
630.367856	23.421449	30.816667
629.249618	22.015401	30.833333
628.131205	20.870284	30.850000
627.173279	19.669695	30.866667
626.536329	18.355922	30.883333
625.418084	16.960573	30.900000
624.139176	15.882358	30.916667
623.181073	14.947071	30.933333
622.383629	13.699781	30.950000
621.265034	12.825591	30.966667
620.788564	11.466874	30.983333
619.509650	10.398995	31.000000
618.391052	9.530042	31.016667
617.593430	8.547149	31.033333
616.635489	7.369694	31.050000
615.356399	6.563429	31.066667
614.558775	5.585441	31.083333
613.440002	4.977445	31.100000
612.481886	4.059991	31.116667
611.523601	3.396465	31.133333
610.244337	2.849487	31.150000
609.446539	2.130174	31.166667
608.809229	1.354060	31.183333
607.850772	0.945983	31.200000
606.892484	0.287178	31.216667
605.933858	0.131533	31.233333
604.654423	-0.159245	31.250000
604.016942	-0.680647	31.266667
603.379293	-0.950869	31.283333
602.581490	-1.663976	31.300000
601.623031	-2.068088	31.316667
600.825060	-2.529445	31.333333
600.027089	-2.990241	31.350000
598.908307	-3.584488	31.366667
597.949846	-3.986150	31.383333
596.991384	-4.387244	31.400000
596.032923	-4.787771	31.416667
595.235116	-5.494422	31.433333
594.116165	-5.835799	31.450000
593.318190	-6.292279	31.466667
592.199405	-6.880765	31.483333
591.401596	-7.583945	31.500000
590.603620	-8.038371	31.516667
589.324344	-8.566262	31.533333
588.526367	-9.019375	31.550000
587.728390	-9.471927	31.566667
586.609601	-10.055170	31.583333
585.490811	-10.637412	31.600000
584.371855	-10.972165	31.616667
583.092575	-11.494776	31.633333
581.813130	-11.770319	31.650000
580.533684	-12.045284	31.666667
579.414727	-12.377553	31.683333
578.135280	-12.651364	31.700000
576.374367	-12.750929	31.716667
575.255244	-12.836271	31.733333
573.173189	-12.573992	31.750000
571.251622	-12.369320	31.766667
566.440930	-10.632462	31.783333
547.345756	-2.272831	31.800000
553.607306	-2.321268	31.816667
562.918962	-4.694734	31.833333
564.527983	-5.519525	31.850000
563.889998	-5.288011	31.866667
564.536252	-6.011380	31.883333
563.737942	-5.967812	31.900000
562.939798	-6.169887	31.916667
561.981000	-6.068234	31.933333
560.540900	-6.038373	31.950000
559.100800	-6.008241	31.966667
552.845709	-3.750587	31.983333
554.614890	-4.141997	32.000000
556.705213	-4.894536	32.016667
553.499572	-3.982143	32.033333
555.429571	-4.922119	32.050000
552.063606	-4.196842	32.066667
552.388717	-4.557742	32.083333
549.664542	-3.818607	32.100000
546.619062	-2.473599	32.116667
549.351504	-3.702819	32.133333
545.343420	-2.500427	32.150000
546.791788	-3.021482	32.166667
546.956574	-3.569132	32.183333
544.713865	-3.003350	32.200000
545.520607	-3.782224	32.216667
541.352033	-2.521403	32.233333
540.714048	-2.289799	32.250000
541.039158	-2.650119	32.266667
537.673028	-1.678611	32.283333
539.442374	-2.315547	32.300000
538.323250	-2.398932	32.316667
536.882984	-2.122042	32.333333
537.529236	-2.842011	32.350000
533.681639	-1.696276	32.366667
534.488216	-2.229828	32.383333
532.085018	-1.605108	32.400000
531.126219	-1.501509	32.416667
531.772470	-2.220725	32.433333
528.566664	-1.062440	32.450000
530.336173	-1.943184	32.466667
528.575093	-1.793292	32.483333
526.492872	-1.283854	32.500000
527.620589	-2.176092	32.516667
523.612503	-0.971378	32.533333
523.295658	-1.098767	32.550000
522.978813	-1.226093	32.566667
521.217569	-0.832038	32.583333
523.147567	-1.770183	32.600000
519.942087	-1.097570	32.616667
519.464915	-1.409439	32.633333
518.345626	-1.246665	32.650000
516.263405	-0.736230	32.666667
516.749003	-1.152627	32.683333
514.024826	-0.410305	32.700000
514.349936	-0.768642	32.716667
514.033253	-1.137535	32.733333
511.790704	-0.810925	32.750000
512.115813	-1.168965	32.766667
510.354731	-1.015760	32.783333
509.235441	-0.852141	32.800000
508.918758	-1.220013	32.816667
505.713114	-0.302899	32.833333
506.359200	-0.776396	32.850000
505.721539	-1.027859	32.866667
503.799805	-0.574004	32.883333
504.606542	-1.346631	32.900000
501.240409	-0.370989	32.916667
501.726006	-0.786121	32.933333
500.285900	-0.746900	32.950000
498.364166	-0.292518	32.966667
499.331230	-0.881280	32.983333
495.965258	-0.146016	33.000000
496.290205	-0.261934	33.016667
495.813031	-0.569654	33.033333
494.212274	-0.230744	33.050000
495.340149	-1.358248	33.066667
491.974176	-0.621829	33.083333
490.694235	-0.158093	33.100000
491.019504	-0.754626	33.116667
487.653371	0.222532	33.133333
489.101900	-0.539338	33.150000
487.501303	-0.439714	33.166667
487.184617	-0.803615	33.183333
486.065486	-0.877388	33.200000
483.341307	-0.131477	33.216667
483.505926	-0.429091	33.233333
482.226146	-0.204831	33.250000
481.267504	-0.335903	33.266667
480.308861	-0.466718	33.283333
478.708103	-0.126136	33.300000
479.193699	-0.539288	33.316667
478.074568	-0.611596	33.333333
475.831854	-0.038772	33.350000
476.317610	-0.690570	33.366667
473.432942	0.114447	33.383333
473.758049	-0.240290	33.400000
472.959894	-0.427650	33.416667
470.075385	0.139197	33.433333
471.202936	-0.505222	33.450000
469.120870	-0.227945	33.466667
468.804022	-0.350201	33.483333
467.845378	-0.478520	33.500000
465.121197	0.269462	33.516667
466.730214	-0.548576	33.533333
464.487659	-0.212328	33.550000
463.689504	-0.397862	33.566667
462.409881	-0.409113	33.583333
460.809122	-0.066573	33.600000
460.492273	-0.188050	33.616667
459.854605	-0.430816	33.633333
458.093516	-0.267221	33.650000
458.097644	-0.504411	33.666667
455.533952	0.186740	33.683333
456.340683	-0.577415	33.700000
454.900571	-0.529052	33.716667
453.299811	-0.185646	33.733333
452.020029	0.041792	33.750000
451.221871	-0.141391	33.766667
450.423555	-0.087821	33.783333
450.267353	-0.502730	33.800000
448.185126	0.015271	33.816667
448.349901	-0.515319	33.833333
445.946855	-0.117147	33.850000
444.988049	-0.005003	33.866667
444.510869	-0.302828	33.883333
442.749619	0.099704	33.900000
442.914394	-0.429889	33.916667
441.634610	-0.201260	33.933333
440.515474	-0.266155	33.950000
440.038292	-0.562964	33.966667
437.956065	-0.043762	33.983333
438.281170	-0.395161	34.000000
435.717791	-0.171962	34.016667
435.400783	-0.055865	34.033333
435.084089	-0.409820	34.050000
433.002019	-0.124958	34.066667
432.685325	-0.478407	34.083333
431.405542	-0.248655	34.100000
430.767713	-0.251053	34.116667
430.611508	-0.662057	34.133333
428.689926	-0.434162	34.150000
426.286719	0.202439	34.166667
425.969868	0.084323	34.183333
425.011219	-0.035595	34.200000
425.175834	-0.327716	34.216667
423.414740	-0.156921	34.233333
422.777067	-0.392330	34.250000
421.818260	-0.277662	34.266667
420.859610	-0.396545	34.283333
419.098515	-0.224804	34.300000
417.818730	0.006356	34.316667
416.538945	0.237590	34.333333
417.827138	-0.693572	34.350000
415.584576	-0.346791	34.366667
414.786258	-0.289452	34.383333
413.506628	-0.290735	34.400000
411.905865	0.057221	34.416667
411.749658	-0.350245	34.433333
410.469873	-0.118247	34.450000
408.869265	-0.002553	34.466667
409.033879	-0.293135	34.483333
406.630672	0.345772	34.500000
407.276908	-0.351261	34.516667
405.515811	-0.176676	34.533333
404.877981	-0.176420	34.550000
403.598506	-0.407646	34.566667
402.639698	-0.290934	34.583333
400.878600	-0.115399	34.600000
400.240770	-0.114680	34.616667
399.442450	-0.055792	34.633333
399.446730	-0.518849	34.650000
397.525143	-0.284405	34.666667
396.085023	-0.224004	34.683333
395.768169	-0.338973	34.700000
394.167560	-0.220064	34.716667
393.850706	-0.334840	34.733333
392.249942	0.015342	34.750000
391.612265	-0.213884	34.766667
390.814100	-0.384744	34.783333
388.250402	0.314497	34.800000
388.575504	-0.032292	34.816667
388.098315	-0.318869	34.833333
386.818682	-0.314592	34.850000
385.699538	-0.368173	34.866667
384.098773	-0.017059	34.883333
383.621430	-0.072743	34.900000
382.502286	-0.125792	34.916667
381.062163	-0.062323	34.933333
380.424331	-0.059552	34.950000
378.502742	0.178714	34.966667
378.667200	0.120582	34.983333
378.511142	-0.509785	35.000000
376.428910	0.016594	35.016667
376.593676	-0.500108	35.033333
374.351108	-0.144492	35.050000
372.429364	0.324125	35.066667
372.433487	0.095130	35.083333
370.993363	0.160602	35.100000
370.997486	-0.068209	35.116667
370.359807	-0.293072	35.133333
369.080171	-0.285096	35.150000
369.084600	-0.970439	35.166667
365.558120	-0.147694	35.183333
364.438667	0.259371	35.200000
364.282300	0.089338	35.216667
362.842176	0.156537	35.233333
363.969873	-0.706505	35.250000
361.245684	0.054286	35.266667
361.089470	-0.343129	35.283333
359.809833	-0.333175	35.300000
357.727599	0.195362	35.316667
358.052851	-0.375914	35.333333
356.452236	-0.248970	35.350000
355.011958	0.047272	35.366667
354.695254	-0.290720	35.383333
353.094487	0.063903	35.400000
353.098760	-0.390054	35.416667
351.658634	-0.320214	35.433333
350.539333	-0.139759	35.450000
350.383117	-0.534923	35.466667
347.177460	0.402039	35.483333
347.342070	0.117356	35.500000
346.704388	-0.102760	35.516667
345.103771	0.026464	35.533333
345.268533	-0.484060	35.550000
343.025960	-0.121573	35.566667
342.708952	-0.005202	35.583333
342.713376	-0.682880	35.600000
339.347229	0.313314	35.616667
339.993457	-0.370787	35.633333
337.911221	0.160123	35.650000
337.433875	0.109187	35.666667
337.438147	-0.341660	35.683333
335.677191	-0.377320	35.700000
335.199845	-0.427875	35.716667
333.599226	-0.295992	35.733333
331.677479	0.177457	35.750000
332.002728	-0.388674	35.766667
328.796919	0.775382	35.783333
330.726906	-0.147822	35.800000
328.965949	-0.181509	35.816667
328.328264	-0.397669	35.833333
327.851067	-0.671789	35.850000
325.448003	-0.247122	35.866667
324.007722	0.052639	35.883333
323.370036	-0.162619	35.900000
320.485355	0.661295	35.916667
322.575831	-0.319411	35.933333
319.691149	0.504657	35.950000
321.781775	-0.699673	35.966667
320.181454	-1.011752	35.983333
316.654817	0.045747	36.000000
315.856491	0.113527	36.016667
314.737188	0.297826	36.033333
313.939011	0.142591	36.050000
314.424597	-0.255187	36.066667
311.540064	0.346938	36.083333
312.988584	-0.400045	36.100000
311.067134	-0.369626	36.116667
309.305874	0.048287	36.133333
308.989164	-0.280379	36.150000
306.585948	0.370700	36.166667
307.071683	-0.248774	36.183333
305.792038	-0.227375	36.200000
303.709800	0.307599	36.216667
304.035045	-0.253027	36.233333
301.792318	0.340412	36.250000
302.438392	-0.114482	36.266667
302.121830	-0.663381	36.283333
299.237295	-0.058186	36.300000
299.562539	-0.617723	36.316667
295.715070	0.337554	36.333333
296.681973	-0.011966	36.350000
294.760224	0.465787	36.366667
294.443512	0.139900	36.383333
294.929244	-0.477034	36.400000
292.847153	-0.161591	36.416667
291.567507	-0.137175	36.433333
292.695343	-1.207074	36.450000
288.045280	0.262037	36.466667
288.370375	-0.074984	36.483333
285.967158	0.578587	36.500000
286.131616	0.520320	36.516667
287.259451	-0.548474	36.533333
285.658826	-0.406086	36.550000
284.379179	-0.379975	36.566667
283.260167	-0.631694	36.583333
280.054505	0.314078	36.600000
281.503169	-0.649735	36.616667
277.816039	0.471114	36.633333
279.264410	-0.053400	36.650000
277.984908	-0.245480	36.666667
276.705260	-0.217793	36.683333
276.549034	-0.597842	36.700000
273.824984	-0.045058	36.716667
273.026656	0.027436	36.733333
273.191407	-0.468563	36.750000
270.467211	0.303613	36.766667
272.076217	-0.497998	36.783333
268.710357	0.070426	36.800000
267.912028	0.143451	36.816667
268.076632	-0.133232	36.833333
265.994538	0.188039	36.850000
267.122222	-0.656402	36.866667
264.719149	-0.218004	36.883333
262.957886	0.205361	36.900000
262.641169	-0.113757	36.916667
261.201030	-0.024493	36.933333
260.563189	-0.008914	36.950000
259.444027	-0.035870	36.966667
258.003741	0.271451	36.983333
258.971082	-0.730435	37.000000
255.605073	0.059758	37.016667
256.090655	-0.332277	37.033333
254.329536	-0.124810	37.050000
252.247294	0.416405	37.066667
253.374832	-0.208660	37.083333
251.453224	0.057663	37.100000
250.976016	-0.200631	37.116667
250.980276	-0.633651	37.133333
247.293143	0.491383	37.150000
249.062782	-0.582831	37.166667
246.017750	0.092980	37.183333
245.701031	-0.222508	37.200000
244.742211	-0.088511	37.216667
242.820602	0.179692	37.233333
242.664371	-0.193502	37.250000
242.026674	-0.391452	37.266667
239.623597	0.052556	37.283333
240.430156	-0.454559	37.300000
237.706100	0.106536	37.316667
237.389380	-0.207200	37.333333
236.591049	-0.130608	37.350000
235.311250	0.121081	37.366667
235.315652	-0.523719	37.383333
232.751941	0.195013	37.400000
232.756054	-0.019731	37.416667
231.797377	-0.098948	37.433333
229.554788	0.288900	37.450000
230.040368	-0.100591	37.466667
228.118756	0.170955	37.483333
227.962380	0.015058	37.500000
227.966924	-0.841360	37.516667
224.761256	0.111860	37.533333
225.086490	-0.432568	37.550000
223.004388	-0.101334	37.566667
221.564100	0.210296	37.583333
221.728844	-0.275156	37.600000
220.128067	0.095045	37.616667
220.292811	-0.390044	37.633333
219.494621	-0.524687	37.650000
217.412519	-0.192112	37.666667
217.095796	-0.501357	37.683333
213.569149	0.569956	37.700000
215.178151	-0.226618	37.716667
213.096048	0.106772	37.733333
212.939671	-0.047501	37.750000
211.980991	-0.122354	37.766667
211.182943	-0.467681	37.783333
210.063631	-0.271296	37.800000
209.426071	-0.674258	37.816667
206.060054	0.127821	37.833333
206.545491	-0.047338	37.850000
204.463387	0.287937	37.866667
204.307009	0.134539	37.883333
204.311262	-0.288857	37.900000
203.031744	-0.456367	37.916667
202.554530	-0.703980	37.933333
200.793403	-0.484177	37.950000
198.711156	0.063808	37.966667
198.394289	-0.030509	37.983333
196.633162	0.189844	38.000000
196.316294	0.095719	38.016667
195.678590	-0.092346	38.033333
195.040886	-0.280163	38.050000
195.045138	-0.701357	38.066667
192.481564	-0.187795	38.083333
191.683370	-0.316448	38.100000
189.761752	-0.035973	38.116667
188.321461	0.279604	38.133333
188.646550	-0.047287	38.150000
187.527377	-0.058344	38.166667
186.729042	0.023847	38.183333
186.412455	-0.488611	38.200000
184.009369	-0.031551	38.216667
184.495086	-0.625789	38.233333
181.771022	-0.051347	38.250000
180.651708	0.148349	38.266667
179.532394	0.348114	38.283333
180.338950	-0.153156	38.300000
179.059287	-0.103857	38.316667
179.224165	-0.789005	38.333333
175.697654	0.078961	38.350000
176.504209	-0.421855	38.366667
174.101262	-0.170963	38.383333
173.463414	-0.145634	38.400000
171.862772	0.022093	38.416667
171.545903	-0.069257	38.433333
170.587217	-0.134893	38.450000
170.270487	-0.434040	38.466667
168.509355	-0.206960	38.483333
168.995070	-0.797835	38.500000
165.468558	0.072672	38.516667
165.793645	-0.251773	38.533333
164.032512	-0.023765	38.550000
163.234175	0.061116	38.566667
162.917444	-0.236533	38.583333
161.798129	-0.034555	38.600000
161.160420	-0.214926	38.616667
161.325294	-0.894214	38.633333
158.119759	-0.138652	38.650000
158.123867	-0.345347	38.666667
155.560288	0.176807	38.683333
155.243279	0.293728	38.700000
154.605707	-0.091759	38.716667
154.288975	-0.387424	38.733333
153.651264	-0.565916	38.750000
152.371597	-0.510290	38.766667
149.968506	-0.045116	38.783333
149.009816	-0.105901	38.800000
147.409033	0.273107	38.816667
148.055096	-0.166432	38.833333
146.775428	-0.109761	38.850000
145.656112	0.094099	38.866667
145.981472	-0.638895	38.883333
143.417891	-0.113626	38.900000
142.459063	0.032155	38.916667
141.981840	-0.202416	38.933333
139.739236	0.206576	38.950000
140.706278	-0.349121	38.966667
138.624300	-0.202827	38.983333
137.825961	-0.114939	39.000000
136.867407	-0.377289	39.016667
135.266622	0.003312	39.033333
135.591980	-0.726226	39.050000
133.188750	-0.052880	39.066667
132.551036	-0.226834	39.083333
131.592344	-0.283547	39.100000
129.991559	0.097681	39.116667
129.835312	-0.251141	39.133333
128.716130	-0.248716	39.150000
127.275834	0.074357	39.166667
128.564125	-1.003661	39.183333
125.358584	-0.239904	39.200000
124.881222	-0.267464	39.216667
123.120083	-0.029851	39.233333
121.519298	0.352351	39.250000
121.684028	-0.111763	39.266667
120.243867	0.009485	39.283333
120.087483	-0.134591	39.300000
120.091860	-0.742010	39.316667
117.046806	-0.034822	39.333333
117.693003	-0.673290	39.350000
114.968928	-0.082593	39.366667
114.491566	-0.109007	39.383333
113.693360	-0.220169	39.400000
111.290128	0.455899	39.416667
113.220237	-0.649812	39.433333
110.817140	-0.175082	39.450000
109.055998	0.065814	39.466667
109.862684	-0.629516	39.483333
106.978118	0.021618	39.500000
107.784668	-0.472172	39.516667
104.739613	0.237913	39.533333
104.101761	0.271119	39.550000
104.426978	-0.247649	39.566667
102.344991	-0.088739	39.583333
101.707139	-0.055151	39.600000
101.551022	-0.597974	39.616667
98.826810	0.196932	39.633333
100.435939	-0.788995	39.650000
97.070039	-0.159789	39.666667
96.432186	-0.125560	39.683333
94.992020	0.001642	39.700000
93.712211	0.270270	39.716667
94.839872	-0.538971	39.733333
93.560195	-0.469688	39.750000
92.280519	-0.400146	39.766667
92.124400	-0.939489	39.783333
87.795295	0.442422	39.800000
88.762333	-0.108041	39.816667
86.680210	0.255217	39.833333
86.523691	0.313778	39.850000
87.009527	-0.458504	39.866667
84.606425	0.022536	39.883333
84.771150	-0.433214	39.900000
83.491605	-0.559999	39.916667
80.767524	0.039117	39.933333
81.574205	-0.650074	39.950000
77.887057	0.499031	39.966667
79.175072	-0.167567	39.983333
78.055883	-0.153384	40.000000
76.776204	-0.080369	40.016667
78.064484	-1.141953	40.033333
74.377467	-0.189606	40.050000
74.060723	-0.467190	40.066667
72.781043	-0.393030	40.083333
69.735850	0.522926	40.100000
70.381908	0.091492	40.116667
69.744053	0.128804	40.133333
69.427308	-0.147909	40.150000
69.913141	-0.914072	40.166667
66.386743	-0.214900	40.183333
66.230487	-0.549229	40.200000
63.185425	0.171411	40.216667
62.547438	0.405796	40.233333
63.514605	-0.338211	40.250000
61.432478	0.031384	40.266667
61.757689	-0.477760	40.283333
60.638627	-0.655019	40.300000
58.075032	-0.108694	40.316667
58.079263	-0.499789	40.333333
54.552601	0.594110	40.350000
56.161463	0.008038	40.366667
56.005336	-0.519354	40.383333
53.923207	-0.147785	40.400000
54.409036	-0.908720	40.416667
51.203483	-0.126197	40.433333
49.923669	0.147943	40.450000
49.285943	-0.006971	40.466667
47.043194	0.619082	40.483333
48.973164	-0.278878	40.500000
47.372632	-0.275941	40.516667
46.574546	-0.565551	40.533333
45.294992	-0.678736	40.550000
41.928688	0.552408	40.566667
43.216831	-0.304404	40.583333
40.974211	0.128831	40.600000
40.657332	0.052403	40.616667
40.982540	-0.452057	40.633333
38.740049	-0.211549	40.650000
38.583788	-0.539510	40.666667
36.341168	-0.104958	40.683333
34.419396	0.405609	40.700000
36.028516	-0.566753	40.716667
33.465046	-0.207037	40.733333
33.148295	-0.475132	40.750000
31.868609	-0.391121	40.766667
29.625858	0.237433	40.783333
30.111553	-0.323269	40.800000
28.029420	0.054625	40.816667
27.873158	-0.271006	40.833333
27.235428	-0.420447	40.850000
24.511209	0.384707	40.866667
25.959839	-0.526841	40.883333
23.396366	-0.163427	40.900000
23.079485	-0.237678	40.916667
21.639436	-0.284089	40.933333
19.878153	0.169845	40.950000
20.203357	-0.329934	40.966667
18.442201	-0.066869	40.983333
17.162384	0.211422	41.000000
18.129673	-0.713257	41.016667
15.726560	-0.214755	41.033333
15.088828	-0.361331	41.050000
12.364735	0.255053	41.066667
11.566258	0.548405	41.083333
12.051951	-0.008358	41.100000
10.451283	0.197858	41.116667
11.900038	-0.900543	41.133333
9.657540	-0.648866	41.150000
7.575403	-0.265598	41.166667
6.777181	-0.351505	41.183333
4.695044	0.032296	41.200000
3.575589	0.443074	41.216667
5.184704	-0.522576	41.233333
1.818653	0.331230	41.250000
3.748747	-0.751342	41.266667
1.024779	-0.320705	41.283333
