Thu Nov 07 14:52:28 2013

Number of Points = 2499
Depth (nm)	Load (µN)	Time (s)
-6.319596	0.300853	0.000000
-6.153166	-0.325958	0.016667
-6.789563	-0.091219	0.033333
-6.623513	-0.149903	0.050000
-7.580888	0.202206	0.066667
-8.698753	0.613000	0.083333
-7.891000	0.698253	0.100000
-7.403972	0.522203	0.116667
-7.077433	0.404836	0.133333
-6.429916	0.170103	0.150000
-6.424355	0.170103	0.166667
-6.418795	0.170103	0.183333
-6.413235	0.170103	0.200000
-6.728653	0.287470	0.216667
-6.723092	0.287470	0.233333
-6.396680	0.359536	0.250000
-6.872588	0.535584	0.266667
-6.225197	0.490345	0.283333
-5.738169	0.314299	0.300000
-5.411504	0.007440	0.316667
-5.887411	0.183488	0.333333
-6.042467	0.431663	0.350000
-5.876417	0.372981	0.366667
-6.191835	0.490345	0.383333
-6.025913	0.621214	0.400000
-6.180842	0.679895	0.416667
-5.372962	0.576102	0.433333
-4.885807	0.210446	0.450000
-5.201225	0.327808	0.466667
-4.874813	0.400061	0.483333
-5.350721	0.576102	0.500000
-5.826628	0.752143	0.516667
-5.179238	0.707092	0.533333
-5.013188	0.648413	0.550000
-4.686649	0.531053	0.566667
-4.199621	0.355015	0.583333
-4.033572	0.296335	0.600000
-4.188501	0.355015	0.616667
-4.664408	0.531053	0.633333
-4.979826	0.648413	0.650000
-4.653415	0.720785	0.666667
-4.487365	0.662106	0.683333
-4.321315	0.603427	0.700000
-3.994904	0.675862	0.716667
-3.828854	0.617184	0.733333
-3.823294	0.617184	0.750000
-3.978223	0.675862	0.766667
-4.133279	0.924391	0.783333
-3.967229	0.865713	0.800000
-3.961669	0.865713	0.816667
-2.993300	0.703563	0.833333
-3.148229	0.762240	0.850000
-2.982180	0.703563	0.866667
-3.137108	0.762240	0.883333
-3.452527	0.879593	0.900000
-3.446966	0.879593	0.916667
-3.281044	1.010887	0.933333
-3.435973	1.069563	0.950000
-2.949072	1.083565	0.966667
-2.943512	1.083565	0.983333
-2.616973	0.966215	1.000000
-2.932391	1.083565	1.016667
-2.766469	1.214979	1.033333
-2.600419	1.156305	1.050000
-2.434497	1.287779	1.066667
-2.107958	1.170432	1.083333
-1.941909	1.111759	1.100000
-2.096838	1.170432	1.116667
-1.770299	1.053085	1.133333
-2.085717	1.170432	1.150000
-2.080157	1.170432	1.166667
-1.593256	1.184622	1.183333
-1.908674	1.301968	1.200000
-1.903114	1.301968	1.216667
-1.897681	1.492236	1.233333
-1.892120	1.492236	1.250000
-1.565709	1.565219	1.266667
-1.560149	1.565219	1.283333
-1.233738	1.638263	1.300000
-1.228177	1.638263	1.316667
-1.222617	1.638263	1.333333
-1.217057	1.638263	1.350000
-1.211624	1.828709	1.366667
-1.206063	1.828709	1.383333
-0.719163	1.843205	1.400000
-0.392624	1.725867	1.416667
-0.066085	1.608528	1.433333
-0.541993	1.784536	1.450000
-0.536432	1.784536	1.466667
-0.691489	2.033769	1.483333
-0.846546	2.283059	1.500000
-0.359517	2.107056	1.516667
-0.193468	2.048389	1.533333
0.133071	1.931053	1.550000
0.619971	1.945737	1.566667
0.144064	2.121738	1.583333
-0.171354	2.239072	1.600000
-0.005305	2.180405	1.616667
0.000000	2.561947	1.633333
0.326283	2.826394	1.650000
0.812927	3.223514	1.666667
1.780910	3.636525	1.683333
2.427914	4.167816	1.700000
3.235279	4.833275	1.716667
4.042384	5.884720	1.733333
5.010106	6.687744	1.750000
6.298676	7.568688	1.766667
7.266395	8.376379	1.783333
8.394471	9.321406	1.800000
9.362317	9.939595	1.816667
10.490390	10.889649	1.833333
11.458103	11.706313	1.850000
12.425815	12.525130	1.866667
13.393393	13.541742	1.883333
14.521460	14.502675	1.900000
15.649655	15.270071	1.916667
16.777718	16.236453	1.933333
17.906042	16.811352	1.950000
18.873877	17.446342	1.966667
19.841445	18.478435	1.983333
20.809278	19.117025	2.000000

21.937465	19.897031	2.016667
23.065651	20.679201	2.033333
24.193969	21.264344	2.050000
25.322419	21.651571	2.066667
26.129757	22.356543	2.083333
26.776470	23.321578	2.100000
27.904650	24.113124	2.116667
28.872339	24.965372	2.133333
30.000515	25.761243	2.150000
31.128691	26.559279	2.166667
32.096375	27.418003	2.183333
33.224818	27.816126	2.200000
34.192501	28.678457	2.216667
35.160317	29.340203	2.233333
36.128133	30.003454	2.250000
37.095947	30.668211	2.266667
38.224114	31.479605	2.283333
39.191789	32.351660	2.300000
40.159601	33.021530	2.316667
41.608878	33.517451	2.333333
42.095220	34.365789	2.350000
43.384006	34.923223	2.366667
44.030835	35.716072	2.383333
45.158992	36.540827	2.400000
46.126659	37.426213	2.416667
47.094324	38.313757	2.433333
48.222616	38.938117	2.450000
49.350768	39.771177	2.466667
50.479057	40.398864	2.483333
51.125878	41.203390	2.500000
52.254026	42.042229	2.516667
53.221823	42.733179	2.533333
54.028990	43.692850	2.550000
55.157134	44.537824	2.566667
56.445765	45.326550	2.583333
57.413558	46.024428	2.600000
58.381631	46.303692	2.616667
59.349280	47.214322	2.633333
60.156581	47.974829	2.650000
61.124228	48.889418	2.666667
62.252363	49.747774	2.683333
63.059518	50.725075	2.700000
64.508628	51.470997	2.716667
65.155576	52.086254	2.733333
66.123216	53.010938	2.750000
67.251202	54.092468	2.766667
67.897861	55.138560	2.783333
69.346964	55.895003	2.800000
69.993620	56.945402	2.816667
70.960966	58.310368	2.833333
72.249575	59.132402	2.850000
73.217060	60.288650	2.866667
74.505810	60.899678	2.883333
75.152604	61.745540	2.900000
76.280718	62.634237	2.916667
77.248342	63.583423	2.933333
78.055330	64.810160	2.950000
79.022806	65.981513	2.966667
79.990279	67.155798	2.983333
80.957604	68.551392	3.000000
82.085562	69.673669	3.016667
83.053029	70.857169	3.033333
84.180983	71.985329	3.050000
84.987957	73.232969	3.066667
85.794781	74.704035	3.083333
86.601307	76.621035	3.100000
88.050081	77.867673	3.116667
89.017535	79.070848	3.133333
90.306114	79.938092	3.150000
90.952736	81.040438	3.166667
91.919885	82.697976	3.183333
93.208309	83.796458	3.200000
94.015264	85.072526	3.216667
95.303834	85.952439	3.233333
96.110786	87.233958	3.250000
97.078073	88.685504	3.266667
98.205998	89.856919	3.283333
99.012943	91.147639	3.300000
99.980224	92.609707	3.316667
100.947502	94.075597	3.333333
101.914777	95.545311	3.350000
102.881897	97.246921	3.366667
103.849013	98.953358	3.383333
104.976769	100.377354	3.400000
106.104676	101.575639	3.416667
107.232581	102.776874	3.433333
108.199841	104.269553	3.450000
109.327897	105.246303	3.466667
110.134818	106.572587	3.483333
111.423204	107.727510	3.500000
111.909144	109.175843	3.516667
113.197370	110.569115	3.533333
114.164928	111.616599	3.550000
115.132173	113.132757	3.566667
116.260216	114.127228	3.583333
117.066967	115.708157	3.600000
118.194850	116.942217	3.616667
119.001596	118.530314	3.633333
120.129475	119.770682	3.650000
121.257194	121.249891	3.666667
122.224738	122.318303	3.683333
123.352452	123.804243	3.700000
124.159663	124.698650	3.716667
125.126884	126.248845	3.733333
126.094103	127.802868	3.750000
127.061319	129.360721	3.766667
128.189022	130.864423	3.783333
129.477531	131.835289	3.800000
130.445222	132.684668	3.816667
131.252102	134.073426	3.833333
132.058979	135.465114	3.850000
133.186671	136.984694	3.866667
134.154195	138.083445	3.883333
135.282044	139.368067	3.900000
136.088751	141.013618	3.916667
137.216759	142.062030	3.933333
138.183951	143.656368	3.950000
139.151303	145.011125	3.966667
140.439631	146.253018	3.983333
141.407143	147.369490	4.000000
142.214164	148.546028	4.016667
143.020857	150.214583	4.033333
144.148524	151.771202	4.050000
145.276353	153.085765	4.066667
146.404345	154.157024	4.083333
147.371847	155.288328	4.100000
148.339182	156.668782	4.116667
149.146026	158.110027	4.133333
150.113357	159.496367	4.150000
151.241009	161.076102	4.166667
152.368824	162.410934	4.183333
153.015172	163.922177	4.200000
154.303305	165.454686	4.216667
155.270458	167.106664	4.233333
156.237777	168.511947	4.250000
157.205093	169.920177	4.266667
158.332896	171.273575	4.283333
159.139720	172.745483	4.300000
160.267519	174.104792	4.316667
161.234659	175.777433	4.333333
162.201965	177.200829	4.350000
163.008611	178.938417	4.366667
164.136401	180.310383	4.383333
165.103701	181.743042	4.400000
166.070829	183.433456	4.416667
167.038125	184.872430	4.433333
167.844759	186.627756	4.450000
168.651047	188.899411	4.466667
169.778308	191.061643	4.483333
171.066399	192.657312	4.500000
172.194171	194.056701	4.516667
173.322114	195.200871	4.533333
173.968417	196.778750	4.550000
175.096010	198.445611	4.566667
175.902450	200.491161	4.583333
177.030212	201.906178	4.600000
178.157971	203.324161	4.616667
178.964403	205.382113	4.633333
179.771006	207.183455	4.650000
180.898232	209.397315	4.666667
182.186295	211.034500	4.683333
182.832402	212.905893	4.700000
183.638641	215.250495	4.716667
184.765853	217.485927	4.733333
186.214215	219.347550	4.750000
187.020976	220.913964	4.766667
188.309200	222.310703	4.783333
189.276445	223.825489	4.800000
190.244045	224.810673	4.816667
190.889952	226.978960	4.833333
191.857012	228.769794	4.850000
193.145047	230.449475	4.866667
194.112102	232.248020	4.883333
194.758177	234.165377	4.900000
196.046204	235.856650	4.916667
196.852582	237.993831	4.933333
198.140422	239.963483	4.950000
198.786487	241.897117	4.966667
199.913651	244.204650	4.983333
201.040993	246.246365	5.000000
201.847354	248.407790	5.016667
203.296032	249.798816	5.033333
204.263243	251.365052	5.050000
205.069963	252.991642	5.066667
206.036986	254.837810	5.083333
207.164679	256.355953	5.100000
208.131881	257.934442	5.116667
209.098897	259.791221	5.133333
209.905237	261.985068	5.150000
211.032551	264.069069	5.166667
212.160047	265.881018	5.183333
212.966563	267.811488	5.200000
213.933380	269.966356	5.216667
214.900193	272.126086	5.233333
216.027491	274.233381	5.250000
216.994671	275.843936	5.266667
218.121964	277.959915	5.283333
219.089140	279.577235	5.300000
220.056126	281.478310	5.316667
221.344087	283.268732	5.333333
222.311445	284.614101	5.350000
223.278802	285.961659	5.366667
224.085670	287.368638	5.383333
224.892157	289.343368	5.400000
226.019428	291.490856	5.416667
226.986397	293.416548	5.433333
227.792495	295.972071	5.450000
229.080436	297.792046	5.466667
230.047206	300.015696	5.483333
231.174652	301.901083	5.500000
231.981312	303.618277	5.516667
232.948073	305.854925	5.533333
234.075512	307.751911	5.550000
235.042460	309.709902	5.566667
236.169894	311.614631	5.583333
237.137031	313.291588	5.600000
237.782801	315.664130	5.616667
239.231203	317.466265	5.633333
239.877357	319.267552	5.650000
241.004193	322.063310	5.666667
242.131806	323.700953	5.683333
243.259612	325.049964	5.700000
244.066245	326.807258	5.716667
244.872484	329.152459	5.733333
245.839011	331.738580	5.750000
247.126904	333.629334	5.766667
248.093621	335.932119	5.783333
249.381903	337.242007	5.800000
250.028034	339.076985	5.816667
250.994743	341.391715	5.833333
252.122135	343.358386	5.850000
252.767862	345.796266	5.866667
254.216026	347.954210	5.883333
255.183320	349.395582	5.900000
255.989726	351.491636	5.916667
257.277593	353.420753	5.933333
257.923506	355.581444	5.950000
259.050679	357.874526	5.966667
260.178050	359.872678	5.983333
260.823753	362.345681	6.000000
261.950917	364.652887	6.016667
263.078280	366.663618	6.033333
264.366331	368.319583	6.050000
265.173117	369.846956	6.066667
265.818806	372.341053	6.083333
266.945753	374.972711	6.100000
268.073103	377.002831	6.116667
269.039758	379.397878	6.133333
270.167306	381.131531	6.150000
270.812775	383.954098	6.166667
272.260885	386.192903	6.183333
273.227938	387.994383	6.200000
274.034296	390.162272	6.216667
275.161832	391.913360	6.233333
275.647003	394.509599	6.250000
277.255379	397.021767	6.266667
278.222628	398.531998	6.283333
279.028765	401.028310	6.300000
280.316778	402.740138	6.316667
280.962422	405.301827	6.333333
282.089526	407.698314	6.350000
283.056556	409.534155	6.366667
283.701982	412.420963	6.383333
285.150052	414.718289	6.400000
285.956168	417.247113	6.416667
286.922769	419.724174	6.433333
288.210552	421.779130	6.450000
289.016868	424.007817	6.466667
290.143947	426.441877	6.483333
290.789982	428.420164	6.500000
292.077120	431.437868	6.516667
293.365101	433.197484	6.533333
294.011129	435.186336	6.550000
295.298893	437.269046	6.566667
296.105404	439.207701	6.583333
297.072188	441.410784	6.600000
298.199457	443.561226	6.616667
298.845260	445.885084	6.633333
299.972096	448.682311	6.650000
300.938654	451.221929	6.666667
301.744292	454.464306	6.683333
303.031603	457.223173	6.700000
304.158854	459.400769	6.716667
305.286103	461.582263	6.733333
306.092589	463.557748	6.750000
307.059345	465.802956	6.766667
308.186586	467.995636	6.783333
308.832143	470.685594	6.800000
309.958726	473.860873	6.816667
311.246445	476.010762	6.833333
312.052699	478.333655	6.850000
313.501338	479.782502	6.866667
314.147537	481.515329	6.883333
314.632371	484.614760	6.900000
315.919639	487.438539	6.916667
316.885927	490.381008	6.933333
318.173628	492.559173	6.950000
319.301058	494.468284	6.966667
320.107291	496.822636	6.983333
321.234717	498.738157	7.000000
321.880236	501.486666	7.016667
322.846283	504.790049	7.033333
323.973257	507.380656	7.050000
325.260938	509.587602	7.066667
326.067154	511.967102	7.083333
327.194119	514.571384	7.100000
328.161264	516.235387	7.116667
328.806761	519.016421	7.133333
330.094205	521.577642	7.150000
331.060670	524.256118	7.166667
332.187620	526.883351	7.183333
332.833329	529.347539	7.200000
334.281473	531.534964	7.216667
334.926951	534.344207	7.233333
336.375090	536.539961	7.250000
336.860300	539.076192	7.266667
337.826063	542.803599	7.283333
338.792275	545.860320	7.300000
340.079458	548.810984	7.316667
341.045890	551.539026	7.333333
342.173264	553.533505	7.350000
342.818944	556.040646	7.366667
344.266830	558.613772	7.383333
345.233479	561.017153	7.400000
346.200356	563.081317	7.416667
347.327949	564.749032	7.433333
348.134335	566.874732	7.450000
349.261463	569.235807	7.466667
350.067382	572.057519	7.483333
351.034017	574.482804	7.500000
351.839467	578.005644	7.516667
352.966119	581.077315	7.533333
354.253719	583.404885	7.550000
355.060088	585.556496	7.566667
355.865288	589.451408	7.583333
356.991925	592.545514	7.600000
357.637096	595.813198	7.616667
359.084934	598.457783	7.633333
360.051306	601.274785	7.650000
361.338885	603.634107	7.666667
362.305958	605.406183	7.683333
362.951819	607.643751	7.700000
363.917944	610.829474	7.716667
365.044790	613.612581	7.733333
366.011144	616.456368	7.750000
367.298707	618.839682	7.766667
367.944081	621.804217	7.783333
368.910188	625.017194	7.800000
369.876530	627.880627	7.816667
371.002878	631.405607	7.833333
371.969212	634.279952	7.850000
372.774816	637.572182	7.866667
373.740664	641.172769	7.883333
375.188689	643.538067	7.900000
375.994522	646.488778	7.916667
376.960839	649.388778	7.933333
378.087881	651.878037	7.950000
379.214679	654.731767	7.966667
380.020983	656.979447	7.983333
380.987288	659.897509	8.000000
382.114319	662.402900	8.016667
383.241105	665.274741	8.033333
384.046913	668.262555	8.050000
385.013693	670.472615	8.066667
385.819251	673.833230	8.083333
387.106022	677.398177	8.100000
387.911817	680.406145	8.116667
388.877850	683.729428	8.133333
390.004612	686.636862	8.150000
390.970884	689.604664	8.166667
391.775926	693.735597	8.183333
393.063164	696.604057	8.200000
394.029178	699.957042	8.216667
395.316656	702.466623	8.233333
396.122918	704.776456	8.250000
397.089418	707.404107	8.266667
398.055666	710.406379	8.283333
398.861176	713.840201	8.300000
399.987655	717.169450	8.316667
401.114629	719.759827	8.333333
401.920127	723.210603	8.350000
403.207583	725.754514	8.366667
403.853088	728.523381	8.383333
404.979800	731.504876	8.400000
405.945771	734.921629	8.416667
407.072224	738.289234	8.433333
407.717465	741.452233	8.450000
409.004146	745.153072	8.466667
409.809613	748.649246	8.483333
411.257024	751.930858	8.500000
411.902251	755.115623	8.516667
413.188913	758.843251	8.533333
413.995382	760.844545	8.550000
414.800576	764.748873	8.566667
416.087226	768.495255	8.583333
417.214151	771.159459	8.600000
418.341585	773.063846	8.616667
419.469017	774.970478	8.633333
419.793245	778.302416	8.650000
420.919647	781.747361	8.666667
421.724814	785.692345	8.683333
423.011436	789.479662	8.700000
424.138341	792.173747	8.716667
424.944270	794.981690	8.733333
426.231656	797.628677	8.750000
426.716088	801.327512	8.766667
427.841944	805.587295	8.783333
428.968054	809.467743	8.800000
430.094940	812.189726	8.816667
431.542797	814.805902	8.833333
432.188740	816.921527	8.850000
432.994384	820.153927	8.866667
433.960512	823.336398	8.883333
434.765887	826.969631	8.900000
436.052719	830.444489	8.916667
437.179585	833.195916	8.933333
437.985476	836.060846	8.950000
439.111810	839.606407	8.966667
439.917695	842.480103	8.983333
440.883271	846.485684	9.000000
442.009858	849.654011	9.016667
442.814939	853.727659	9.033333
444.101740	857.248381	9.050000
444.907343	860.542564	9.066667
446.033383	864.526871	9.083333
447.160219	867.324853	9.100000
447.965544	871.032738	9.116667
448.931353	874.692056	9.133333
450.058179	877.503763	9.150000
450.863493	881.228641	9.166667
452.150800	883.994605	9.183333
452.956375	887.329297	9.200000
454.243407	890.505269	9.216667
455.048707	894.252044	9.233333
456.014759	897.547542	9.250000
457.141294	900.793482	9.266667
458.107340	904.098880	9.283333
459.073382	907.409220	9.300000
460.039420	910.724504	9.316667
460.844698	914.504686	9.333333
462.131430	918.127644	9.350000
462.776213	921.974384	9.366667
463.741418	926.533150	9.383333
465.188898	929.713256	9.400000
465.833668	933.578763	9.416667
467.120379	937.232919	9.433333
467.925902	940.646439	9.450000
468.891358	944.831233	9.466667
469.857085	948.612348	9.483333
470.661770	953.277124	9.500000
472.108394	957.733558	9.516667
473.074660	960.709424	9.533333
474.040646	964.102637	9.550000
475.006630	967.500800	9.566667
475.811845	971.372669	9.583333
477.098794	974.672892	9.600000
478.065045	977.670817	9.616667
479.031015	981.088794	9.633333
480.157747	984.040918	9.650000
480.802739	987.576523	9.666667
482.088832	992.153991	9.683333
483.055068	995.174465	9.700000
483.699206	999.982912	9.716667
485.146051	1004.109956	9.733333
485.791023	1007.673949	9.750000
486.916886	1011.922539	9.766667
487.882541	1015.810944	9.783333
488.847909	1020.127619	9.800000
489.973758	1024.397678	9.816667
490.778914	1028.359534	9.833333
492.225441	1032.959966	9.850000
493.513184	1035.074776	9.866667
494.158981	1037.407515	9.883333
495.446436	1039.952162	9.900000
496.091945	1042.715438	9.916667
496.896795	1047.133016	9.933333
498.183671	1050.542321	9.950000
498.667540	1055.080951	9.966667
500.114607	1058.875674	9.983333
501.081074	1061.551812	10.000000
501.725129	1066.484617	10.016667
503.011699	1070.350973	10.033333
503.495257	1075.353488	10.050000
504.941436	1080.473667	10.066667
506.228281	1083.929449	10.083333
507.033664	1087.551343	10.100000
508.160306	1090.637754	10.116667
508.965974	1093.835469	10.133333
510.252806	1097.310146	10.150000
511.058759	1100.081707	10.166667
511.863544	1104.596308	10.183333
513.150366	1108.085965	10.200000
513.956019	1111.305243	10.216667
514.920985	1116.221855	10.233333
516.047310	1119.781157	10.250000
516.852367	1123.890519	10.266667
518.299362	1127.791861	10.283333
518.783439	1132.020446	10.300000
519.748380	1136.974309	10.316667
521.034582	1141.389368	10.333333
521.839913	1145.089831	10.350000
522.965324	1150.013648	10.366667
524.252400	1153.123025	10.383333
524.897235	1156.892851	10.400000
526.184008	1160.454048	10.416667
526.828539	1164.677734	10.433333
528.436277	1168.142775	10.450000
528.921208	1171.096166	10.466667
529.886401	1175.674646	10.483333
531.012672	1179.314708	10.500000
531.978154	1183.459816	10.516667
533.104418	1187.110409	10.533333
534.230979	1190.318160	10.550000
534.875479	1194.586313	10.566667
536.161918	1198.647633	10.583333
536.806712	1202.478359	10.600000
537.932355	1207.054745	10.616667
538.898113	1210.790077	10.633333
539.863262	1215.433099	10.650000
540.988892	1220.030369	10.666667
542.115123	1223.729690	10.683333
542.920380	1227.540210	10.700000
544.046605	1231.249512	10.716667
545.012340	1235.016884	10.733333
545.977463	1239.698932	10.750000
547.103677	1243.424311	10.766667
548.229888	1247.154697	10.783333
549.356707	1249.977129	10.800000
549.841276	1253.471446	10.816667
550.966864	1258.130169	10.833333
551.931962	1262.849259	10.850000
552.897671	1266.658082	10.866667
553.863068	1270.931220	10.883333
554.667667	1275.723367	10.900000
555.792306	1281.799443	10.916667
556.757379	1286.555449	10.933333
557.882933	1291.266014	10.950000
559.330073	1294.952809	10.966667
559.975403	1297.982214	10.983333
560.940459	1302.763838	11.000000
561.584540	1307.658360	11.016667
562.869934	1313.279640	11.033333
564.156569	1317.047606	11.050000
564.961745	1320.978714	11.066667
565.926778	1325.795977	11.083333
567.213715	1329.112580	11.100000
568.018881	1333.059144	11.116667
568.984529	1336.958029	11.133333
569.950173	1340.861897	11.150000
570.914870	1346.179990	11.166667
572.040992	1350.042881	11.183333
573.006310	1354.434300	11.200000
573.971939	1358.360295	11.216667
574.936933	1363.235528	11.233333
575.741119	1368.643526	11.250000
577.187558	1373.376762	11.266667
577.992686	1377.378994	11.283333
578.958297	1381.333737	11.300000
579.923585	1385.768695	11.316667
581.049355	1390.157382	11.333333
581.693346	1395.185882	11.350000
582.979272	1400.012248	11.366667
584.105348	1403.942863	11.383333
585.231742	1407.400259	11.400000
586.197968	1410.435297	11.416667
587.002745	1414.963139	11.433333
587.968323	1418.964991	11.450000
588.933255	1423.932600	11.466667
590.059311	1427.893277	11.483333
590.863749	1432.926607	11.500000
591.989151	1437.862895	11.516667
593.115520	1441.357971	11.533333
593.598650	1446.999296	11.550000
595.044684	1452.336431	11.566667
596.010232	1456.384230	11.583333
596.814641	1461.459892	11.600000
597.940341	1465.952680	11.616667
598.744415	1471.529183	11.633333
600.030590	1475.983461	11.650000
601.317089	1479.956011	11.666667
602.283268	1483.060831	11.683333
603.409603	1486.605515	11.700000
603.894324	1489.872830	11.716667
604.859513	1494.456514	11.733333
605.984854	1499.484886	11.750000
606.789550	1504.133399	11.766667
608.235850	1509.072172	11.783333
609.041527	1512.256686	11.800000
610.167510	1516.325881	11.816667
610.811375	1521.542360	11.833333
611.776205	1526.662517	11.850000
613.061667	1532.181250	11.866667
614.027482	1535.830821	11.883333
614.831813	1541.023696	11.900000
616.278410	1545.520394	11.916667
616.923246	1549.287792	11.933333
618.048533	1554.396790	11.950000
619.013998	1558.568330	11.966667
619.978791	1563.742560	11.983333
621.265887	1566.823112	12.000000
622.071192	1570.561484	12.016667
623.036309	1575.252899	12.033333
623.840265	1581.004220	12.050000
624.966194	1585.155837	12.066667
625.930961	1590.368627	12.083333
626.735239	1595.640367	12.100000
628.020965	1600.764954	12.116667
628.986056	1605.495715	12.133333
629.951142	1610.232630	12.150000
631.077047	1614.418794	12.166667
632.042465	1618.661433	12.183333
632.846715	1623.973642	12.200000
634.132754	1628.631791	12.216667
634.937676	1632.942478	12.233333
636.223707	1637.612432	12.250000
637.350273	1640.813238	12.266667
637.995042	1644.680382	12.283333
639.120919	1648.907339	12.300000
640.086993	1652.169966	12.316667
641.052039	1656.968022	12.333333
642.017423	1661.260787	12.350000
642.821976	1666.121788	12.366667
643.947150	1671.399143	12.383333
644.751350	1676.786343	12.400000
645.876514	1682.078598	12.416667
646.841189	1687.429466	12.433333
647.805514	1693.303132	12.450000
649.091147	1698.567331	12.466667
650.377813	1702.289119	12.483333
651.022886	1705.702197	12.500000
652.309894	1708.914091	12.516667
652.632607	1714.507103	12.533333
654.239188	1719.699331	12.550000
655.044387	1723.596160	12.566667
656.169855	1728.434528	12.583333
657.135184	1732.809651	12.600000
658.100509	1737.189790	12.616667
659.226665	1741.002602	12.633333
660.031500	1745.443144	12.650000
660.996465	1750.360309	12.666667
661.961426	1755.283641	12.683333
662.605065	1760.838590	12.700000
663.890282	1766.722163	12.716667
665.176550	1771.039124	12.733333
666.142198	1774.937111	12.750000
667.268328	1778.788333	12.766667
668.234676	1781.641334	12.783333
668.718159	1786.756445	12.800000
670.003351	1792.679499	12.816667
670.807439	1798.235042	12.833333
672.092973	1803.646032	12.850000
673.058599	1807.576823	12.866667
674.183996	1812.521230	12.883333
675.310456	1815.879760	12.900000
675.954751	1820.455322	12.916667
677.080137	1825.415884	12.933333
677.884908	1829.951402	12.950000
678.849803	1834.974264	12.966667
679.974820	1840.486346	12.983333
681.100547	1844.937564	13.000000
682.065429	1849.978993	13.016667
683.191867	1853.370444	13.033333
683.675291	1858.573681	13.050000
685.121613	1863.480598	13.066667
685.926356	1868.058379	13.083333
687.051343	1873.615461	13.100000
688.177046	1878.103679	13.116667
688.660450	1883.336908	13.133333
689.945545	1889.403511	13.150000
690.910752	1893.959330	13.166667
692.196562	1898.960255	13.183333
693.322971	1902.394309	13.200000
693.806718	1907.115360	13.216667
695.092153	1912.674729	13.233333
696.057343	1917.256281	13.250000
697.183014	1921.792715	13.266667
697.987714	1926.434476	13.283333
698.952894	1931.031121	13.300000
700.078189	1936.127710	13.316667
701.364695	1940.089296	13.333333
701.687565	1945.447388	13.350000
703.294665	1949.864572	13.366667
703.939228	1954.039817	13.383333
705.063770	1960.260068	13.400000
706.029293	1964.345220	13.416667
706.994078	1969.532207	13.433333
708.280193	1974.075975	13.450000
708.925109	1977.724467	13.466667
709.888776	1984.579525	13.483333
711.174880	1989.139619	13.500000
711.818679	1994.456058	13.516667
713.264519	2000.082028	13.533333
714.230387	2003.652568	13.550000
715.035027	2008.382923	13.566667
716.160631	2013.018751	13.583333
717.125748	2017.709400	13.600000
718.251346	2022.355364	13.616667
718.895862	2026.599829	13.633333
720.021080	2031.811577	13.650000
721.146294	2037.029561	13.666667
722.112141	2040.631251	13.683333
723.076864	2045.909485	13.700000
724.042332	2050.077005	13.716667
724.685332	2056.583689	13.733333
726.452834	2061.072977	13.750000
726.776360	2065.453170	13.766667
728.222513	2070.611979	13.783333
729.188717	2073.680600	13.800000
729.832448	2079.096961	13.816667
730.956494	2086.058344	13.833333
732.081665	2091.340498	13.850000
733.047104	2095.550951	13.866667
734.173023	2099.716017	13.883333
734.816734	2105.162559	13.900000
736.102752	2109.852520	13.916667
737.067042	2115.778003	13.933333
738.192569	2120.528586	13.950000
739.318852	2124.150325	13.966667
739.802061	2129.674543	13.983333
740.926817	2135.575985	14.000000
741.891085	2141.534169	14.016667
743.337178	2146.782761	14.033333
744.303346	2149.905448	14.050000
744.947400	2154.839600	14.066667
746.072517	2160.202238	14.083333
747.198396	2164.428076	14.100000
748.002539	2169.900190	14.116667
749.450145	2172.891904	14.133333
749.773601	2177.375228	14.150000
751.058414	2183.862270	14.166667
752.344761	2188.061230	14.183333
752.989559	2191.885689	14.200000
753.954164	2197.340471	14.216667
754.918379	2203.377272	14.233333
756.203555	2209.323690	14.250000
757.169307	2213.067253	14.266667
757.973026	2219.172770	14.283333
759.259351	2223.404554	14.300000
759.742096	2229.620710	14.316667
761.188121	2234.971865	14.333333
762.153081	2239.895816	14.350000
763.118039	2244.824823	14.366667
764.243865	2249.129133	14.383333
765.049113	2252.953573	14.400000
766.013671	2258.478066	14.416667
767.460454	2262.697570	14.433333
767.783856	2267.262013	14.450000
769.229851	2272.656698	14.466667
770.195178	2277.035393	14.483333
770.998843	2283.220676	14.500000
771.964163	2287.608860	14.516667
773.250053	2292.489649	14.533333
774.054885	2296.934963	14.550000
775.180285	2301.873962	14.566667
775.823842	2307.551005	14.583333
776.787177	2314.901525	14.600000
777.911777	2321.036122	14.616667
779.197249	2326.540312	14.633333
780.483903	2330.280790	14.650000
781.289503	2333.579337	14.666667
782.094309	2338.061587	14.683333
783.059596	2342.499456	14.700000
783.863208	2348.765211	14.716667
785.148659	2354.300888	14.733333
786.113538	2359.346353	14.750000
787.239295	2363.754997	14.766667
787.883601	2368.312484	14.783333
788.846877	2375.750940	14.800000
790.132707	2380.721320	14.816667
790.936687	2386.437386	14.833333
792.222510	2391.418556	14.850000
793.188164	2395.307059	14.866667
793.992534	2400.441754	14.883333
795.117865	2405.485267	14.900000
795.922228	2410.630052	14.916667
796.885865	2417.529615	14.933333
798.010783	2423.189987	14.950000
799.136098	2428.256079	14.966667
800.100928	2433.375268	14.983333
801.066158	2437.897935	15.000000
802.030578	2443.628850	15.016667
803.156284	2448.112634	15.033333
803.960215	2453.902709	15.050000
804.924623	2459.651087	15.066667
806.209992	2465.309990	15.083333
807.014315	2470.513634	15.100000
808.299676	2476.184500	15.116667
808.943916	2480.840434	15.133333
809.908712	2486.011440	15.150000
810.872690	2492.402098	15.166667
811.836256	2499.408308	15.183333
812.961113	2505.158246	15.200000
814.407338	2510.209871	15.216667
815.373340	2513.580513	15.233333
816.338932	2517.563483	15.250000
816.660957	2524.182359	15.266667
818.105941	2531.086897	15.283333
819.071113	2535.694967	15.300000
820.518139	2539.552071	15.316667
821.162753	2543.649999	15.333333
821.966615	2549.543394	15.350000
822.931365	2554.781527	15.366667
824.056182	2560.591812	15.383333
824.859619	2567.118425	15.400000
826.144909	2572.894442	15.416667
826.949576	2577.586147	15.433333
828.074377	2583.420886	15.450000
829.038691	2589.309241	15.466667
830.002588	2595.822017	15.483333
830.805998	2602.389583	15.500000
832.091262	2608.203343	15.516667
833.216041	2614.070666	15.533333
834.342063	2618.082396	15.550000
835.468915	2620.855457	15.566667
836.273970	2624.966987	15.583333
836.757644	2629.797659	15.600000
837.881156	2637.555724	15.616667
838.845015	2644.124815	15.633333
840.130249	2649.983415	15.650000
840.934453	2655.365091	15.666667
842.219680	2661.235686	15.683333
843.184778	2665.955531	15.700000
844.310773	2670.006481	15.716667
844.954903	2674.827882	15.733333
845.757831	2682.114355	15.750000
846.881716	2689.315870	15.766667
848.006016	2695.897800	15.783333
849.291635	2701.182154	15.800000
850.418035	2704.629859	15.816667
851.223049	2708.803437	15.833333
852.027638	2713.610457	15.850000
852.991438	2720.267581	15.866667
853.955656	2726.300540	15.883333
855.080351	2732.293020	15.900000
856.044984	2737.705648	15.916667
857.331001	2742.396651	15.933333
858.135996	2746.598001	15.950000
858.778808	2753.386262	15.966667
859.742152	2760.723828	15.983333
860.865545	2768.659643	16.000000
862.150692	2774.649520	16.016667
863.276634	2778.781068	16.033333
864.081611	2783.008809	16.050000
865.206694	2788.422453	16.066667
866.171720	2793.249221	16.083333
867.135887	2799.358047	16.100000
867.779516	2804.926330	16.116667
869.064208	2811.594460	16.133333
870.350184	2816.347630	16.150000
870.994662	2820.649115	16.166667
872.119291	2826.739830	16.183333
873.083865	2832.240758	16.200000
873.726613	2839.125299	16.216667
875.171760	2845.786005	16.233333
875.974978	2852.639311	16.250000
877.260930	2857.426619	16.266667
877.904524	2863.048184	16.283333
879.028691	2869.828351	16.300000
879.831892	2876.708359	16.316667
881.116963	2882.810160	16.333333
882.402465	2888.270362	16.350000
883.367870	2892.531010	16.366667
884.011877	2897.535685	16.383333
885.298239	2901.710962	16.400000
886.102722	2906.677186	16.416667
887.227292	2912.856135	16.433333
888.192249	2917.785460	16.450000
888.835806	2923.462096	16.466667
890.120409	2930.264217	16.483333
891.084919	2935.860306	16.500000
891.888946	2941.507346	16.516667
893.334453	2947.629928	16.533333
893.977992	2953.333521	16.550000
895.102530	2959.559742	16.566667
896.067462	2964.526967	16.583333
897.030633	2972.122582	16.600000
898.156479	2976.397528	16.616667
898.800441	2981.469795	16.633333
900.246362	2986.975387	16.650000
901.050798	2992.010562	16.666667
902.175752	2997.617221	16.683333
903.301143	3002.569782	16.700000
903.784168	3008.368467	16.716667
904.907342	3016.631683	16.733333
906.193204	3021.553929	16.750000
907.319026	3025.864298	16.766667
908.122998	3031.592749	16.783333
908.926966	3037.326261	16.800000
909.568674	3045.763263	16.816667
911.173701	3053.274191	16.833333
911.977211	3059.691514	16.850000
913.423085	3065.268435	16.866667
914.228371	3069.034616	16.883333
915.193244	3074.089968	16.900000
916.158114	3079.149386	16.916667
916.961607	3085.592488	16.933333
918.246537	3091.906158	16.950000
919.050918	3097.024963	16.966667
919.853503	3104.823629	16.983333
921.299797	3109.771870	17.000000
922.104617	3114.234756	17.016667
922.907188	3122.053685	17.033333
924.031614	3128.448571	17.050000
924.674144	3135.656891	17.066667
926.280001	3141.929946	17.083333
927.083904	3147.761186	17.100000
928.208764	3153.507571	17.116667
929.013112	3158.674729	17.133333
929.815649	3166.545284	17.150000
931.422842	3170.822598	17.166667
932.226728	3176.679342	17.183333
933.352478	3181.098577	17.200000
934.157264	3185.610645	17.216667
934.960688	3192.157844	17.233333
935.924133	3199.344571	17.250000
936.727093	3206.583603	17.266667
937.849641	3215.779327	17.283333
939.455901	3221.451593	17.300000
940.101101	3224.674623	17.316667
941.386395	3230.444396	17.333333
942.191616	3234.308683	17.350000
942.513569	3241.036719	17.366667
944.118441	3248.779707	17.383333
944.760886	3256.115635	17.400000
946.205725	3263.236507	17.416667
947.332351	3266.346413	17.433333
948.136181	3272.286395	17.450000
949.422366	3276.727178	17.466667
949.905690	3282.079182	17.483333
951.190030	3289.272615	17.500000
951.833828	3294.589706	17.516667
953.117698	3302.484151	17.533333
953.921508	3308.455274	17.550000
955.045811	3315.031841	17.566667
956.169649	3322.304372	17.583333
957.295331	3326.823727	17.600000
957.938184	3333.550721	17.616667
959.062008	3340.842695	17.633333
959.865795	3346.846647	17.650000
960.828203	3355.581904	17.666667
962.274364	3360.728637	17.683333
963.238619	3366.705528	17.700000
964.525691	3369.822656	17.716667
965.009433	3374.550591	17.733333
965.812270	3381.973769	17.750000
967.096073	3389.968432	17.766667
967.738886	3396.754796	17.783333
969.022679	3404.766089	17.800000
970.146921	3411.434505	17.816667
971.111147	3417.454669	17.833333
972.075370	3423.479963	17.850000
973.038652	3430.909579	17.866667
974.324295	3436.158510	17.883333
975.128967	3440.842264	17.900000
975.932698	3446.931290	17.916667
977.377871	3453.552298	17.933333
978.022527	3457.589170	17.950000
979.146264	3465.010579	17.966667
980.271882	3469.626202	17.983333
981.076067	3475.035956	18.000000
982.039786	3481.814730	18.016667
982.682069	3489.391901	18.033333
984.287222	3496.715395	18.050000
984.930915	3502.188861	18.066667
986.055095	3508.949371	18.083333
987.018792	3515.759686	18.100000
988.143438	3521.824888	18.116667
988.785220	3530.151281	18.133333
990.392245	3534.679972	18.150000
991.036395	3539.472052	18.166667
992.321031	3546.224219	18.183333
992.803744	3552.488478	18.200000
993.766937	3560.050626	18.216667
995.051083	3567.533912	18.233333
996.014744	3574.398579	18.250000
996.978400	3581.269554	18.266667
998.263488	3587.346648	18.283333
999.067615	3592.843947	18.300000
999.870302	3600.490136	18.316667
1000.833463	3608.100800	18.333333
1002.117576	3615.633006	18.350000
1003.082168	3621.108006	18.366667
1004.045796	3628.021977	18.383333
1005.009900	3634.224177	18.400000
1006.134961	3639.670018	18.416667
1006.937617	3647.363200	18.433333
1008.383629	3652.733025	18.450000
1009.027245	3658.321329	18.466667
1010.311324	3665.904742	18.483333
1011.116862	3669.295935	18.500000
1011.919981	3676.297099	18.516667
1013.044537	3682.496628	18.533333
1014.007643	3690.190051	18.550000
1014.971713	3696.443755	18.566667
1015.934323	3704.875343	18.583333
1017.058864	3711.098376	18.600000
1018.182915	3718.052090	18.616667
1019.148429	3722.150732	18.633333
1019.790551	3729.968880	18.650000
1020.914103	3737.666954	18.666667
1021.716205	3746.185602	18.683333
1023.160704	3753.814729	18.700000
1024.286194	3758.619689	18.716667
1025.090237	3764.242223	18.733333
1026.215234	3769.784045	18.750000
1027.019271	3775.414735	18.766667
1027.982315	3783.200591	18.783333
1029.106322	3790.219876	18.800000
1029.748890	3797.372348	18.816667
1031.193845	3804.319828	18.833333
1032.157852	3810.666764	18.850000
1033.121856	3817.018854	18.866667
1033.925379	3823.418257	18.883333
1035.048869	3831.209231	18.900000
1036.012862	3837.577893	18.916667
1037.136836	3844.646207	18.933333
1038.261793	3850.246589	18.950000
1039.226270	3855.893147	18.966667
1040.030266	3861.585810	18.983333
1041.154721	3867.937195	19.000000
1041.958216	3874.377683	19.016667
1042.921194	3882.260978	19.033333
1044.045637	3888.629031	19.050000
1044.847631	3897.309232	19.066667
1045.971073	3905.172888	19.083333
1047.096001	3910.816947	19.100000
1048.059453	3917.992718	19.116667
1049.023399	3924.431282	19.133333
1050.308796	3930.047544	19.150000
1051.273733	3935.006916	19.166667
1052.238169	3940.714377	19.183333
1052.880648	3948.000220	19.200000
1053.843078	3956.701509	19.216667
1055.127959	3963.087885	19.233333
1056.091380	3970.310062	19.250000
1057.055298	3976.790525	19.266667
1057.857732	3984.814904	19.283333
1058.981116	3992.763936	19.300000
1060.265978	3999.179259	19.316667
1060.909428	4005.015001	19.333333
1062.354760	4011.398825	19.350000
1062.998708	4016.491766	19.366667
1063.962098	4023.760960	19.383333
1065.085456	4031.747877	19.400000
1066.048837	4039.030391	19.416667
1067.334179	4044.729011	19.433333
1068.138085	4050.555477	19.450000
1068.941483	4057.140852	19.466667
1070.065326	4064.404488	19.483333
1071.029194	4070.959570	19.500000
1072.314014	4077.437622	19.516667
1072.796443	4084.126310	19.533333
1073.919254	4092.929240	19.550000
1074.721106	4101.823285	19.566667
1076.165878	4109.043828	19.583333
1077.130231	4114.874094	19.600000
1078.094073	4121.468752	19.616667
1079.057911	4128.068580	19.633333
1080.343720	4133.069132	19.650000
1081.148096	4138.195492	19.666667
1081.950937	4145.611776	19.683333
1083.075239	4152.189835	19.700000
1083.556606	4160.463194	19.716667
1085.482263	4168.377508	19.733333
1086.125635	4174.330803	19.750000
1087.089445	4180.972066	19.766667
1088.374719	4186.771374	19.783333
1088.696101	4194.351340	19.800000
1089.979313	4203.228131	19.816667
1090.781603	4211.467869	19.833333
1091.743849	4220.443218	19.850000
1093.349029	4227.727223	19.866667
1093.992373	4233.720972	19.883333
1095.438616	4238.746455	19.900000
1095.921478	4244.788288	19.916667
1097.045212	4252.214963	19.933333
1097.847471	4260.500623	19.950000
1099.131673	4267.900376	19.966667
1100.256429	4273.800673	19.983333
1101.059711	4280.559225	20.000000
1102.022429	4288.831104	20.016667
1103.468649	4293.890716	20.033333
1103.630532	4300.050222	20.050000
1105.234105	4309.731588	20.066667
1106.199406	4314.148053	20.083333
1106.841670	4321.754600	20.100000
1107.964839	4330.024875	20.116667
1109.089045	4336.746271	20.133333
1110.052772	4343.512897	20.150000
1111.015972	4351.064088	20.166667
1111.657693	4359.481546	20.183333
1113.261745	4368.447976	20.200000
1114.227549	4372.113656	20.216667
1115.191257	4378.907370	20.233333
1116.155486	4384.924034	20.250000
1116.636184	4394.195456	20.266667
1118.079736	4403.237263	20.283333
1119.043954	4409.270299	20.300000
1120.167594	4416.837246	20.316667
1121.775290	4420.365278	20.333333
1121.777693	4425.077111	20.350000
1123.221750	4433.364527	20.366667
1124.025478	4439.457863	20.383333
1124.666616	4448.743956	20.400000
1126.110659	4457.053282	20.416667
1126.752843	4464.779165	20.433333
1128.196875	4473.103366	20.450000
1129.322067	4478.354500	20.466667
1129.803762	4486.137523	20.483333
1130.926829	4494.560342	20.500000
1131.728938	4503.069545	20.516667
1132.850401	4513.885422	20.533333
1134.457005	4519.042802	20.550000
1135.100218	4525.232544	20.566667
1136.224857	4531.308695	20.583333
1136.868065	4537.506583	20.600000
1138.151576	4545.937398	20.616667
1139.276205	4552.027567	20.633333
1139.918870	4559.035500	20.650000
1141.362844	4567.447077	20.666667
1142.167580	4572.034981	20.683333
1142.648690	4580.692757	20.700000
1144.092651	4589.124178	20.716667
1144.735297	4596.159451	20.733333
1145.856152	4607.883233	20.750000
1147.302242	4613.136324	20.766667
1147.944340	4620.990513	20.783333
1149.229412	4627.092069	20.800000
1149.711564	4634.194082	20.816667
1151.154415	4644.280630	20.833333
1152.279539	4649.632962	20.850000
1153.083170	4655.869966	20.866667
1154.368226	4661.995066	20.883333
1155.011916	4667.473938	20.900000
1155.974935	4675.295271	20.916667
1156.937951	4683.122980	20.933333
1157.899881	4692.570894	20.950000
1158.863428	4699.605032	20.966667
1159.824805	4709.877213	20.983333
1160.947736	4718.503454	21.000000
1162.232764	4724.670227	21.016667
1163.036362	4730.956385	21.033333
1164.320841	4737.942127	21.050000
1164.963958	4744.275369	21.066667
1165.926392	4752.971033	21.083333
1166.888821	4761.674375	21.100000
1167.850700	4771.198530	21.116667
1169.134614	4779.027737	21.133333
1170.260231	4783.644437	21.150000
1170.902236	4791.636643	21.166667
1172.508729	4796.960564	21.183333
1172.830869	4803.408213	21.200000
1173.632245	4813.010997	21.216667
1174.915589	4821.691634	21.233333
1175.876881	4832.091791	21.250000
1177.321785	4839.114320	21.266667
1178.286907	4843.798999	21.283333
1178.929429	4851.019903	21.300000
1180.052824	4858.952381	21.316667
1180.693689	4868.646224	21.333333
1182.460076	4874.798919	21.350000
1182.943210	4880.436290	21.366667
1184.066038	4889.215010	21.383333
1185.350990	4895.494753	21.400000
1185.832460	4903.614046	21.416667
1187.276777	4911.513764	21.433333
1187.919267	4918.783295	21.450000
1188.881597	4927.633458	21.466667
1190.004398	4936.453786	21.483333
1191.127747	4944.455145	21.500000
1192.092279	4950.018724	21.516667
1192.895225	4957.278240	21.533333
1193.856978	4966.990545	21.550000
1194.980310	4975.016362	21.566667
1196.104195	4982.218988	21.583333
1197.067600	4989.464193	21.600000
1198.192034	4995.846626	21.616667
1198.674008	5003.213475	21.633333
1200.443678	5004.466424	21.650000
1199.810124	5000.459246	21.666667
1199.501970	4989.734909	21.683333
1199.199919	4969.899959	21.700000
1198.256500	4949.422343	21.716667
1197.636771	4924.779802	21.733333
1196.375657	4899.518991	21.750000
1195.272775	4877.567139	21.766667
1194.331988	4853.161637	21.783333
1193.067471	4832.979621	21.800000
1192.284354	4812.722365	21.816667
1191.342375	4790.094937	21.833333
1190.399818	4768.329370	21.850000
1189.458320	4744.984383	21.866667
1187.873799	4723.465073	21.883333
1187.088916	4705.843422	21.900000
1185.984685	4685.905675	21.916667
1184.879348	4667.618646	21.933333
1184.095480	4648.482341	21.950000
1183.152189	4627.813785	21.966667
1182.047857	4608.027122	21.983333
1181.103975	4588.240134	22.000000

1179.677569	4570.205697	22.016667
1178.891977	4553.642680	22.033333
1177.946957	4535.553822	22.050000
1177.324465	4515.035697	22.066667
1176.221047	4493.883819	22.083333
1175.117070	4473.567976	22.100000
1173.690524	4455.741740	22.116667
1172.744329	4439.406834	22.133333
1171.798116	4423.099149	22.150000
1171.013414	4405.207283	22.166667
1169.748312	4385.898277	22.183333
1169.123517	4368.817402	22.200000
1167.858366	4349.580920	22.216667
1166.752098	4332.683231	22.233333
1165.805766	4316.554291	22.250000
1164.698938	4300.492626	22.266667
1163.753608	4282.865746	22.283333
1162.646742	4266.861244	22.300000
1161.699816	4251.617428	22.316667
1160.915421	4233.268717	22.333333
1159.970524	4214.995667	22.350000
1158.864096	4198.337183	22.366667
1157.597171	4181.749185	22.383333
1156.811143	4165.836178	22.400000
1155.704656	4149.266103	22.416667
1154.758114	4133.449359	22.433333
1153.811554	4117.659801	22.450000
1153.186950	4100.292561	22.466667
1151.921944	4080.841303	22.483333
1150.976339	4063.625048	22.500000
1149.709251	4047.280651	22.516667
1148.280652	4032.519260	22.533333
1147.653918	4018.331650	22.550000
1146.707224	4002.741455	22.566667
1145.760512	3987.178430	22.583333
1144.975266	3970.099328	22.600000
1143.708062	3953.926494	22.616667
1142.599813	3939.986993	22.633333
1141.814005	3923.745380	22.650000
1140.867700	3907.575058	22.666667
1139.761396	3890.731893	22.683333
1138.654074	3875.407282	22.700000
1137.868684	3858.542885	22.716667
1136.761820	3842.534939	22.733333
1135.815909	3825.775977	22.750000
1134.547538	3811.346356	22.766667
1133.761078	3796.078896	22.783333
1132.814121	3780.880620	22.800000
1131.546682	3765.060116	22.816667
1130.438228	3751.424945	22.833333
1129.650716	3737.727487	22.850000
1128.542722	3723.406691	22.866667
1127.755179	3709.754826	22.883333
1126.970060	3692.486097	22.900000
1125.863474	3676.063953	22.916667
1124.755894	3661.124250	22.933333
1124.131671	3643.189302	22.950000
1122.543100	3627.715197	22.966667
1121.755935	3613.498817	22.983333
1120.165397	3600.960933	23.000000
1119.698677	3587.424187	23.016667
1118.912427	3571.843105	23.033333
1117.645200	3555.704867	23.050000
1116.536515	3542.414825	23.066667
1115.428293	3528.433557	23.083333
1114.318623	3516.614318	23.100000
1113.530852	3503.303630	23.116667
1112.742590	3490.725333	23.133333
1111.795736	3475.374060	23.150000
1110.849336	3459.344913	23.166667
1109.741489	3444.804159	23.183333
1108.634097	3429.585650	23.200000
1107.525269	3416.508046	23.216667
1106.898806	3401.916571	23.233333
1105.791827	3386.080854	23.250000
1104.683888	3371.677254	23.266667
1103.736410	3357.256984	23.283333
1102.628435	3342.907732	23.300000
1101.680921	3328.541690	23.316667
1100.571979	3315.636389	23.333333
1099.623036	3303.403066	23.350000
1098.675007	3289.804486	23.366667
1097.727426	3275.539180	23.383333
1096.619347	3261.345212	23.400000
1095.671729	3247.134111	23.416667
1094.402212	3234.413875	23.433333
1093.774139	3222.224828	23.450000
1092.184552	3208.266486	23.466667
1091.716472	3196.760168	23.483333
1090.769686	3181.307305	23.500000
1089.822422	3166.568261	23.516667
1088.714203	3152.583741	23.533333
1087.766900	3137.902750	23.550000
1086.497709	3124.696211	23.566667
1085.549461	3111.424715	23.583333
1084.600745	3098.853027	23.600000
1083.813849	3084.236478	23.616667
1082.866002	3070.367140	23.633333
1081.596727	3057.286453	23.650000
1080.649294	3042.799896	23.666667
1079.058127	3031.199395	23.683333
1078.428485	3021.351822	23.700000
1077.479215	3009.607253	23.716667
1076.530824	2996.550900	23.733333
1076.224782	2982.672974	23.750000
1074.796693	2967.150238	23.766667
1073.526844	2954.926452	23.783333
1072.739307	2941.266951	23.800000
1071.629906	2929.044484	23.816667
1070.842776	2914.778182	23.833333
1069.573303	2901.992360	23.850000
1068.463855	2889.841292	23.866667
1067.514434	2878.321365	23.883333
1066.565000	2866.821367	23.900000
1065.937388	2853.944531	23.916667
1064.830498	2837.974648	23.933333
1063.400010	2826.032506	23.950000
1062.771477	2814.531076	23.966667
1061.341394	2801.984979	23.983333
1060.712399	2791.171809	24.000000
1059.603247	2778.579027	24.016667
1058.494079	2766.010869	24.033333
1057.705856	2753.374691	24.050000
1056.274832	2742.231658	24.066667
1055.484861	2732.204466	24.083333
1054.696594	2719.634489	24.100000
1053.426011	2708.505145	24.116667
1052.959102	2695.251444	24.133333
1051.528861	2682.939972	24.150000
1050.740954	2669.831990	24.166667
1049.792972	2656.164244	24.183333
1048.522314	2645.148080	24.200000
1047.573873	2632.165227	24.216667
1046.464089	2620.515722	24.233333
1045.675674	2608.166003	24.250000
1044.726761	2595.887642	24.266667
1043.135067	2585.074284	24.283333
1042.666730	2573.951831	24.300000
1041.235072	2563.755709	24.316667
1040.444911	2554.012250	24.333333
1039.817721	2540.504955	24.350000
1038.547338	2529.077872	24.366667
1037.919282	2516.864438	24.383333
1036.649697	2504.246337	24.400000
1035.539749	2492.842088	24.416667
1034.912056	2480.085997	24.433333
1033.642830	2466.932059	24.450000
1032.693315	2455.552586	24.466667
1031.744605	2442.970954	24.483333
1030.474095	2431.733266	24.500000
1029.524534	2420.422529	24.516667
1028.253179	2410.446703	24.533333
1027.463257	2400.345528	24.550000
1026.513655	2389.096572	24.566667
1025.403150	2378.523011	24.583333
1024.614000	2367.269275	24.600000
1023.503468	2356.736626	24.616667
1022.553001	2346.778126	24.633333
1021.764615	2334.385129	24.650000
1020.494363	2322.762878	24.666667
1019.866424	2310.374311	24.683333
1018.436456	2297.656168	24.700000
1017.325036	2288.447264	24.716667
1016.696250	2277.324131	24.733333
1015.425519	2266.416109	24.750000
1014.635029	2257.163725	24.766667
1013.686424	2244.424926	24.783333
1012.255166	2233.631914	24.800000
1011.947665	2221.932674	24.816667
1010.355895	2211.233733	24.833333
1009.726611	2200.852755	24.850000
1008.617435	2188.294251	24.866667
1007.023660	2180.587674	24.883333
1006.554427	2170.801134	24.900000
1005.604907	2159.430350	24.916667
1004.654980	2148.665367	24.933333
1003.866298	2136.713244	24.950000
1002.435280	2125.562317	24.966667
1001.484920	2115.444882	24.983333
1000.374063	2105.396235	25.000000
999.583387	2096.420942	25.016667
998.634528	2084.062546	25.033333
997.523246	2074.649080	25.050000
996.573202	2064.059619	25.066667
995.463042	2052.970293	25.083333
994.512204	2043.566091	25.100000
993.561735	2033.610620	25.116667
992.611633	2023.107139	25.133333
991.661136	2013.192395	25.150000
990.551280	2001.650241	25.166667
988.957688	1993.669416	25.183333
988.487469	1985.356572	25.200000
987.376061	1976.129959	25.216667
986.746844	1965.649535	25.233333
985.636537	1954.779416	25.250000
984.525466	1945.051970	25.266667
983.415128	1934.228402	25.283333
982.303655	1925.099794	25.300000
981.351908	1917.051119	25.316667
980.722606	1906.696811	25.333333
979.450985	1897.117345	25.350000
979.304215	1884.998615	25.366667
977.552592	1873.407863	25.383333
976.440672	1864.947086	25.400000
975.490328	1854.804808	25.416667
974.378384	1846.378419	25.433333
973.427280	1837.370699	25.450000
972.315681	1828.430743	25.466667
971.525036	1819.408294	25.483333
970.574990	1808.822086	25.500000
969.303233	1799.445868	25.516667
968.512913	1789.938863	25.533333
967.401613	1780.552128	25.550000
966.450060	1772.213856	25.566667
965.660424	1761.687167	25.583333
964.549804	1751.285557	25.600000
963.438090	1742.516368	25.616667
962.487206	1733.179421	25.633333
961.375110	1724.980695	25.650000
960.745169	1715.580073	25.666667
959.474349	1704.806116	25.683333
958.683540	1696.029384	25.700000
957.573170	1685.253549	25.716667
956.461367	1676.617570	25.733333
955.670873	1667.370534	25.750000
954.398914	1658.295531	25.766667
953.608746	1648.562921	25.783333
952.497244	1639.477867	25.800000
951.224543	1631.509389	25.816667
950.593769	1623.353007	25.833333
949.804245	1612.658574	25.850000
948.371722	1603.753631	25.866667
947.902438	1594.043865	25.883333
946.148920	1585.281907	25.900000
945.678915	1576.647522	25.916667
944.567653	1567.204517	25.933333
943.616171	1558.760740	25.950000
942.504880	1549.359518	25.966667
941.392889	1541.004364	25.983333
940.280544	1533.177984	26.000000
939.649982	1524.703231	26.016667
938.216987	1516.502783	26.033333
937.907371	1507.960403	26.050000
936.636196	1497.716438	26.066667
935.363647	1489.521879	26.083333
934.090410	1482.354611	26.100000
933.298617	1475.046634	26.116667
932.507488	1466.746451	26.133333
931.395043	1459.068924	26.150000
930.443743	1450.353658	26.166667
929.652914	1441.606456	26.183333
928.701922	1432.431969	26.200000
927.429612	1423.880427	26.216667
926.317441	1415.793451	26.233333
925.365079	1408.663428	26.250000
924.735003	1399.465186	26.266667
923.783942	1390.392503	26.283333
922.672382	1381.393686	26.300000
921.721621	1371.873944	26.316667
920.289061	1363.024260	26.333333
919.497443	1355.454926	26.350000
918.546311	1346.489802	26.366667
917.434026	1338.571965	26.383333
916.321730	1330.671800	26.400000
915.369258	1323.706537	26.416667
914.256615	1316.323384	26.433333
913.304447	1308.903692	26.450000
912.352269	1301.499613	26.466667
911.239595	1294.163420	26.483333
910.287395	1286.790594	26.500000
909.656476	1278.849768	26.516667
908.544410	1270.605666	26.533333
907.592817	1262.328928	26.550000
906.962498	1253.491382	26.566667
905.530376	1243.989215	26.583333
904.579056	1235.302720	26.600000
903.627090	1227.582363	26.616667
902.675427	1219.408480	26.633333
901.402466	1211.829546	26.650000
900.289978	1204.215681	26.666667
899.176537	1198.023753	26.683333
898.544857	1191.218454	26.700000
897.271852	1183.705037	26.716667
896.479979	1176.516312	26.733333
895.367747	1168.520153	26.750000
894.415367	1161.417299	26.766667
893.463596	1153.405583	26.783333
892.189913	1146.902831	26.800000
891.558163	1140.202276	26.816667
890.606664	1131.783860	26.833333
889.654844	1123.845450	26.850000
888.703622	1115.012731	26.866667
887.591288	1107.168881	26.883333
886.318151	1099.852638	26.900000
885.043786	1094.369749	26.916667
884.090384	1088.791048	26.933333
883.458250	1082.663956	26.950000
882.506044	1075.300639	26.966667
881.714614	1067.451341	26.983333
880.602801	1058.829796	27.000000
879.329586	1051.629801	27.016667
878.216245	1045.288410	27.033333
877.263082	1039.353753	27.050000
876.310209	1032.985597	27.066667
875.518111	1026.133272	27.083333
874.405328	1018.959802	27.100000
873.452723	1012.192957	27.116667
872.821670	1004.451824	27.133333
871.548661	996.944220	27.150000
870.435830	989.842126	27.166667
869.322987	982.757639	27.183333
868.370033	976.511785	27.200000
867.577847	969.789580	27.216667
866.625749	962.265748	27.233333
865.673637	954.761563	27.250000
864.400541	947.384432	27.266667
863.126563	941.323563	27.283333
862.494808	934.630136	27.300000
861.542359	927.629421	27.316667
860.268639	921.183154	27.333333
859.315593	915.073242	27.350000
858.201766	909.458415	27.366667
857.408903	903.747802	27.383333
856.134859	897.784968	27.400000
855.341979	892.099053	27.416667
854.549943	885.152894	27.433333
853.597410	878.278200	27.450000
852.484379	871.475054	27.466667
851.371336	864.689491	27.483333
850.578691	858.653214	27.500000
849.626393	851.427670	27.516667
848.513595	844.275883	27.533333
847.721199	837.869067	27.550000
846.608655	830.338663	27.566667
845.334777	824.128398	27.583333
844.381583	818.239118	27.600000
842.946645	812.939290	27.616667
842.313578	808.204556	27.633333
841.521121	801.887034	27.650000
840.246920	796.158398	27.666667
839.454169	790.280452	27.683333
838.340436	784.524890	27.700000
837.547393	779.081984	27.716667
836.595219	771.671409	27.733333
835.320970	766.014082	27.750000
834.849687	759.288525	27.766667
833.415744	752.503721	27.783333
832.622924	746.728476	27.800000
831.509660	740.272408	27.816667
830.235361	734.690003	27.833333
829.763754	728.448391	27.850000
828.329484	722.151123	27.866667
827.215109	717.353910	27.883333
826.582985	711.211424	27.900000
825.469125	705.644655	27.916667
824.355521	699.696324	27.933333
823.241379	694.552213	27.950000
822.126964	689.813631	27.966667
821.655016	684.080644	27.983333
820.220401	678.298339	28.000000
819.587685	673.039132	28.016667
818.474547	666.396572	28.033333
817.521360	660.496362	28.050000
816.728651	654.556733	28.066667
814.973010	648.962251	28.083333
814.660964	644.046986	28.100000
813.547509	637.875730	28.116667
812.433271	632.874644	28.133333
811.801255	626.570264	28.150000
810.849023	619.246861	28.166667
809.414548	613.255815	28.183333
808.139783	608.367670	28.200000
807.024990	604.195243	28.216667
806.713132	598.998407	28.233333
805.117624	593.876931	28.250000
804.484524	589.191898	28.266667
803.210225	583.609611	28.283333
802.416874	578.627408	28.300000
801.302290	574.141947	28.316667
800.188199	568.919685	28.333333
799.073351	564.829143	28.350000
798.600943	559.782131	28.366667
797.326589	554.281532	28.383333
796.532942	549.740718	28.400000
795.579296	544.526807	28.416667
794.465401	539.013563	28.433333
793.832956	533.349548	28.450000
792.719286	527.500901	28.466667
791.605603	521.669759	28.483333
790.330934	516.640382	28.500000
789.216255	512.296376	28.516667
788.262057	507.907124	28.533333
786.986877	503.639250	28.550000
786.513884	499.465160	28.566667
785.399662	494.440408	28.583333
784.606163	489.677681	28.600000
783.492163	484.320594	28.616667
782.056459	480.163755	28.633333
781.262458	476.151712	28.650000
780.308202	471.847658	28.666667
779.354178	467.198273	28.683333
779.042333	461.983137	28.700000
777.608015	455.757181	28.716667
776.653964	451.148422	28.733333
775.540124	445.552082	28.750000
774.425568	441.025419	28.766667
773.471725	436.104866	28.783333
772.357152	431.602832	28.800000
771.242105	427.809299	28.816667
770.448492	423.217589	28.833333
769.494616	418.346970	28.850000
768.540499	413.835704	28.866667
767.265400	409.448215	28.883333
766.150318	405.705006	28.900000
765.356436	401.515118	28.916667
764.080855	397.846152	28.933333
763.607935	393.563896	28.950000
762.332799	389.230857	28.966667
761.539345	384.401324	28.983333
760.585395	379.641428	29.000000
759.310234	375.345769	29.016667
758.195100	371.681285	29.033333
757.562100	366.846349	29.050000
756.447403	362.529378	29.066667
755.653449	358.447145	29.083333
754.217762	354.265459	29.100000
753.584281	350.148257	29.116667
752.469776	345.544354	29.133333
751.354818	341.617822	29.150000
750.400118	337.976473	29.166667
749.445855	333.682985	29.183333
748.170168	330.173127	29.200000
747.375937	326.503124	29.216667
746.100238	323.010802	29.233333
745.627191	318.918085	29.250000
744.512405	314.734310	29.266667
743.397174	311.214048	29.283333
742.282373	307.052348	29.300000
741.166912	303.875387	29.316667
740.372639	300.269262	29.333333
739.578360	296.671830	29.350000
738.624235	292.173149	29.366667
737.830158	288.273974	29.383333
736.715743	283.536779	29.400000
735.761377	279.397354	29.416667
734.646942	274.689149	29.433333
733.371158	271.323651	29.450000
732.416343	267.853804	29.466667
731.301247	264.132932	29.483333
730.185721	261.053452	29.500000
729.391166	257.868123	29.516667
728.276051	254.174840	29.533333
727.160300	251.432313	29.550000
726.205241	248.326276	29.566667
725.571363	244.802003	29.583333
724.295528	241.513101	29.600000
723.180174	238.176277	29.616667
722.385375	235.355014	29.633333
721.590987	231.920763	29.650000
720.476030	227.991304	29.666667
719.521141	224.632634	29.683333
718.566452	220.975519	29.700000
717.611756	217.328610	29.716667
716.496361	214.054304	29.733333
715.380960	210.788734	29.750000
714.426040	207.475074	29.766667
713.310627	204.226962	29.783333
712.355291	201.536351	29.800000
711.400558	197.945266	29.816667
710.445212	195.268593	29.833333
709.329777	192.053216	29.850000
708.374623	189.089747	29.866667
707.098288	186.546928	29.883333
706.303412	183.839430	29.900000
705.508733	180.839689	29.916667
704.553959	177.309129	29.933333
703.438292	174.439259	29.950000
702.483308	171.223623	29.966667
701.528515	167.721334	29.983333
700.412832	164.875464	30.000000
699.457633	161.979915	30.016667
698.181060	159.792573	30.033333
697.225655	157.203208	30.050000
696.430735	154.562845	30.066667
695.475518	151.693957	30.083333
694.520101	149.123367	30.100000
693.565069	145.978140	30.116667
692.128372	143.302543	30.133333
691.333236	140.983903	30.150000
690.377802	138.438777	30.166667
689.422557	135.611849	30.183333
688.467115	133.079440	30.200000
687.511860	130.266486	30.216667
686.395921	127.803973	30.233333
685.601145	124.947812	30.250000
684.485388	122.213350	30.266667
683.369435	119.770254	30.283333
682.413967	117.276010	30.300000
681.137139	115.468131	30.316667
680.181664	112.984823	30.333333
679.386484	110.732120	30.350000
678.430812	108.541580	30.366667
677.636190	105.456666	30.383333
676.359534	103.392149	30.400000
675.404039	100.938513	30.416667
674.287864	98.827115	30.433333
673.492663	96.606009	30.450000
672.697644	94.112002	30.466667
671.260669	91.853398	30.483333
670.465271	89.924745	30.500000
669.349080	87.838516	30.516667
668.393374	85.699847	30.533333
667.758641	83.451328	30.550000
666.482135	81.162751	30.566667
665.526418	79.039357	30.583333
664.570698	76.920876	30.600000
663.293998	74.922148	30.616667
662.659431	72.426365	30.633333
661.543030	70.652336	30.650000
660.747968	68.224854	30.666667
659.631742	66.188923	30.683333
658.515514	64.157922	30.700000
657.399282	62.131848	30.716667
656.122198	60.706332	30.733333
655.166089	59.168845	30.750000
654.049489	57.691850	30.766667
653.093197	56.428244	30.783333
652.458059	54.784277	30.800000
651.341811	52.781786	30.816667
650.225382	51.050678	30.833333
649.269260	49.531969	30.850000
648.312958	48.281923	30.866667
647.517499	46.445957	30.883333
646.401060	44.728990	30.900000
645.284442	43.280222	30.916667
644.649463	41.397841	30.933333
643.372529	39.749667	30.950000
642.576880	38.195538	30.966667
641.139276	36.874792	30.983333
640.182960	35.646377	31.000000
639.065978	34.739610	31.016667
638.270323	33.196159	31.033333
637.474491	31.916728	31.050000
636.197366	30.551703	31.066667
635.401531	29.277033	31.083333
634.605868	27.744646	31.100000
633.489227	26.330541	31.116667
632.532898	25.120837	31.133333
631.416252	23.712300	31.150000
630.299432	22.565044	31.166667
629.503414	21.562622	31.183333
628.386591	20.419420	31.200000
627.430255	19.220741	31.216667
626.634406	17.966566	31.233333
625.357089	16.887693	31.250000
624.561066	15.894151	31.266667
623.444235	14.761633	31.283333
622.166743	13.944621	31.300000
621.370716	12.955991	31.316667
620.093052	12.397106	31.333333
619.618000	11.295778	31.350000
618.500993	10.426917	31.366667
617.705132	9.189992	31.383333
616.748612	8.266770	31.400000
615.471113	7.460598	31.416667
614.354101	6.598222	31.433333
613.557897	5.874778	31.450000
612.601372	4.957416	31.466667
611.965654	4.178414	31.483333
610.848470	3.573724	31.500000
609.891943	2.660367	31.516667
608.453780	2.173493	31.533333
607.817891	1.650084	31.550000
607.182171	0.876010	31.566667
606.225472	0.218509	31.583333
605.268436	0.063531	31.600000
604.472057	-0.399660	31.616667
603.354701	-0.746677	31.633333
602.718810	-1.266547	31.650000
602.082751	-1.535737	31.666667
600.965560	-2.131176	31.683333
600.008691	-2.533735	31.700000
598.730843	-2.820084	31.716667
597.934629	-3.528657	31.733333
596.656781	-3.813672	31.750000
595.860231	-4.022636	31.766667
595.064015	-4.728966	31.783333
594.107143	-5.127935	31.800000
593.471248	-5.642016	31.816667
592.193398	-5.924170	31.833333
591.076202	-6.511580	31.850000
590.279818	-6.965944	31.866667
589.322944	-7.361894	31.883333
588.366069	-7.757276	31.900000
586.927728	-7.978516	31.916667
585.650041	-8.504044	31.933333
584.853489	-8.708565	31.950000
583.575801	-9.232577	31.966667
582.458271	-9.320593	31.983333
581.180417	-9.596807	32.000000
579.902562	-9.872442	32.016667
578.785196	-10.205378	32.033333
577.507176	-10.234079	32.050000
576.710787	-10.681820	32.066667
574.790811	-10.478321	32.083333
572.549858	-10.158760	32.100000
569.506133	-9.058876	32.116667
555.548846	-3.531862	32.133333
558.923517	-3.028235	32.150000
562.780477	-3.925577	32.166667
564.551084	-4.070187	32.183333
565.519741	-4.663509	32.200000
564.723023	-4.620120	32.216667
564.407771	-4.750301	32.233333
563.129586	-4.533135	32.250000
562.012055	-4.619522	32.266667
561.536313	-4.691558	32.283333
559.134708	-4.068914	32.300000
558.819291	-3.953144	32.316667
557.862248	-4.096865	32.333333
556.583898	-3.633770	32.350000
556.429299	-4.066659	32.366667
552.583130	-2.677326	32.383333
554.354230	-3.559391	32.400000
551.310505	-2.459482	32.416667
551.316229	-2.704692	32.433333
551.482443	-3.007734	32.450000
549.722791	-2.616004	32.466667
549.086561	-2.629451	32.483333
548.771308	-2.758621	32.500000
547.653775	-2.843081	32.516667
546.696567	-2.740468	32.533333
541.887630	-1.248202	32.550000
543.497913	-1.582504	32.566667
542.701358	-1.782325	32.583333
543.188384	-1.956026	32.600000
543.354925	-2.747464	32.616667
540.311527	-2.135998	32.633333
539.514807	-2.090725	32.650000
537.273689	-1.524219	32.666667
534.711429	-0.597700	32.683333
535.840411	-1.003053	32.700000
535.364832	-1.317493	32.716667
536.172999	-1.851037	32.733333
535.055629	-2.177284	32.750000
531.209786	-1.274770	32.766667
531.215346	-1.274770	32.783333
528.653250	-0.591722	32.800000
528.658974	-0.835262	32.816667
528.504208	-1.020824	32.833333
527.386511	-0.858809	32.850000
528.194841	-1.635067	32.866667
525.632907	-1.194721	32.883333
523.873254	-0.800662	32.900000
524.521095	-1.518387	32.916667
520.353948	-0.012300	32.933333
522.125047	-0.892403	32.950000
519.081484	-0.034614	32.966667
520.210628	-0.682896	32.983333
518.611626	-0.588969	33.000000
518.457023	-1.016167	33.016667
516.857858	-0.679300	33.033333
516.221788	-0.932312	33.050000
513.338713	-0.131726	33.066667
514.147042	-0.905784	33.083333
511.424293	0.079186	33.100000
511.751156	-0.520800	33.116667
509.991502	-0.125399	33.133333
510.478690	-0.541124	33.150000
509.200665	-0.561182	33.166667
507.922639	-0.580973	33.183333
505.681680	-0.252802	33.200000
506.650335	-0.841960	33.216667
503.285793	0.133612	33.233333
503.933470	-0.339523	33.250000
502.013327	0.114646	33.266667
502.179699	-0.425649	33.283333
500.580533	-0.087170	33.300000
500.425928	-0.511182	33.316667
498.826923	-0.413314	33.333333
497.869712	-0.306315	33.350000
495.949569	0.148527	33.366667
495.955451	-0.332681	33.383333
493.393352	0.354245	33.400000
494.843473	-0.407892	33.416667
492.442024	-0.019095	33.433333
492.608234	-0.317323	33.450000
491.490694	-0.391870	33.466667
489.731039	0.005744	33.483333
487.811056	0.221476	33.500000
487.335310	0.155522	33.516667
485.896632	0.437489	33.533333
486.544308	-0.034168	33.550000
485.105791	0.008312	33.566667
483.506624	0.348543	33.583333
483.031039	0.043548	33.600000
482.555453	-0.261199	33.616667
480.956446	-0.159800	33.633333
479.517768	0.122948	33.650000
477.758112	0.521749	33.666667
477.763832	0.282755	33.683333
476.806780	0.152886	33.700000
476.331034	0.088049	33.716667
475.213493	0.016561	33.733333
473.453996	0.177318	33.750000
472.657272	0.228802	33.766667
471.539571	0.396350	33.783333
471.224473	0.035670	33.800000
469.946442	0.023240	33.816667
468.347274	0.365139	33.833333
467.871527	0.301093	33.850000
467.074962	0.115190	33.866667
465.475953	0.219577	33.883333
465.481832	-0.255854	33.900000
463.080220	0.376670	33.916667
462.925450	0.197127	33.933333
462.128885	0.012262	33.950000
461.011342	-0.056318	33.966667
459.733151	0.170561	33.983333
458.615448	0.339498	34.000000
457.337416	0.329476	34.016667
457.824601	-0.081574	34.033333
455.904613	0.140875	34.050000
454.947558	0.015465	34.066667
453.669366	0.242979	34.083333
452.391175	0.470567	34.100000
451.755097	0.229637	34.116667
450.316575	0.279104	34.133333
449.840827	0.216893	34.150000
449.846545	-0.019348	34.166667
447.766068	0.262780	34.183333
447.290478	-0.035160	34.200000
445.049511	0.305555	34.216667
445.055229	0.069754	34.233333
443.456217	0.178729	34.250000
442.659491	0.233319	34.266667
441.862765	0.287977	34.283333
440.745219	0.223367	34.300000
439.467027	0.452361	34.316667
439.312413	0.039872	34.333333
437.552754	0.443217	34.350000
437.558629	-0.026944	34.366667
434.836194	0.490005	34.383333
434.199799	0.722212	34.400000
434.366163	0.194507	34.416667
433.248616	0.131476	34.433333
432.130912	0.303255	34.450000
431.013365	0.240623	34.466667
429.253705	0.644849	34.483333
430.062023	-0.114109	34.500000
427.178942	0.696764	34.516667
427.184816	0.228488	34.533333
426.067111	0.400892	34.550000
424.307608	0.571716	34.566667
424.473813	0.279792	34.583333
422.714466	0.217347	34.600000
421.917739	0.274092	34.616667
422.084101	-0.251020	34.633333
418.880197	0.443680	34.650000
419.688358	-0.079998	34.666667
417.126409	0.382827	34.683333
416.329525	0.673219	34.700000
415.693443	0.439387	34.716667
414.415248	0.671052	34.733333
415.223565	-0.085140	34.750000
412.982593	0.262497	34.766667
412.346510	0.029553	34.783333
411.870915	-0.261228	34.800000
408.185388	0.842399	34.816667
408.993392	0.551951	34.833333
407.554864	0.610118	34.850000
406.437158	0.784533	34.866667
407.084985	0.087881	34.883333
405.485968	0.204796	34.900000
404.689394	0.031493	34.916667
403.732487	-0.315137	34.933333
400.046959	0.789583	34.950000
400.855119	0.267527	34.966667
399.255946	0.617076	34.983333
399.101172	0.443761	35.000000
398.625576	0.155418	35.016667
396.705580	0.390298	35.033333
397.353250	-0.073251	35.050000
394.470320	0.510696	35.066667
393.192124	0.744672	35.083333
393.679461	0.108675	35.100000
391.117508	0.577105	35.116667
391.925667	0.055911	35.133333
389.845181	0.350402	35.150000
388.246007	0.701173	35.166667
388.733343	0.066150	35.183333
386.010747	0.823990	35.200000
385.855972	0.651944	35.216667
384.898908	0.540535	35.233333
384.262821	0.313129	35.250000
384.910644	-0.379059	35.266667
380.583466	0.501420	35.283333
380.589027	0.501420	35.300000
379.471319	0.678798	35.316667
378.514253	0.568693	35.333333
378.199143	0.226298	35.350000
377.081435	0.404017	35.366667
376.445347	0.178275	35.383333
376.130236	-0.163499	35.400000
372.765836	0.599686	35.416667
372.932039	0.312740	35.433333
370.370083	0.785644	35.450000
371.017599	0.553060	35.466667
371.665422	-0.136703	35.483333
368.461510	0.569341	35.500000
368.467376	0.112667	35.516667
366.065756	0.756703	35.533333
364.948047	0.935599	35.550000
366.719291	-0.160272	35.566667
363.515379	0.546917	35.583333
364.163200	-0.141397	35.600000
361.761732	0.275560	35.616667
359.841578	0.745875	35.633333
360.649735	0.227508	35.650000
358.569245	0.528702	35.666667
358.093643	0.248517	35.683333
357.457552	0.026745	35.700000
355.216420	0.613980	35.716667
355.703751	-0.014591	35.733333
352.499685	0.921899	35.750000
352.826375	0.578686	35.766667
352.832240	0.125123	35.783333
350.751748	0.428087	35.800000
351.078590	-0.141339	35.816667
348.035012	0.737615	35.833333
347.559258	0.685782	35.850000
346.762676	0.524127	35.866667
345.484628	0.537275	35.883333
345.971958	-0.089353	35.900000
344.533421	-0.017510	35.916667
342.131799	0.629489	35.933333
343.100595	-0.171099	35.950000
339.254573	0.999844	35.966667
340.383707	0.366939	35.983333
339.105658	0.381530	36.000000
337.827609	0.396385	36.016667
338.154449	-0.170470	36.033333
336.234443	0.077691	36.050000
334.635265	0.434676	36.066667
333.838682	0.275848	36.083333
331.115931	1.265282	36.100000
333.850104	-0.173747	36.116667
330.485547	0.823842	36.133333
330.972876	0.200017	36.150000
329.053020	0.225151	36.166667
328.095797	0.350082	36.183333
327.138724	0.250879	36.200000
325.539695	0.384787	36.216667
323.940516	0.742916	36.233333
325.711605	-0.121406	36.250000
322.186859	0.487868	36.266667
322.513547	0.147723	36.283333
320.593539	0.399136	36.300000
319.796805	0.466724	36.316667
318.839731	0.369209	36.333333
317.401040	0.669896	36.350000
317.567389	0.165190	36.366667
316.449825	0.126541	36.383333
313.727223	0.893408	36.400000
314.695866	0.321072	36.416667
311.491946	1.039965	36.433333
312.621079	0.409567	36.450000
312.306109	-0.141931	36.466667
310.064973	0.450842	36.483333
309.749853	0.122444	36.500000
307.669355	0.434928	36.516667
306.070323	0.572968	36.533333
305.755055	0.467361	36.550000
303.834896	0.944253	36.566667
305.445495	0.139845	36.583333
303.686122	0.115000	36.600000
302.729046	0.021097	36.616667
301.771970	-0.072550	36.633333
298.086432	1.045757	36.650000
298.573608	0.649595	36.666667
297.134916	0.952529	36.683333
298.103706	0.160493	36.700000
297.628244	-0.328065	36.716667
294.745299	0.278686	36.733333
293.627585	0.465653	36.750000
292.830848	0.536168	36.766667
290.429222	1.189375	36.783333
291.237522	0.456795	36.800000
289.798830	0.760636	36.816667
291.088745	-0.366768	36.833333
289.650347	-0.503090	36.850000
286.446423	0.222158	36.866667
284.847093	0.804881	36.883333
284.050504	0.656343	36.900000
282.932788	0.844406	36.916667
284.382897	0.100126	36.933333
282.462884	0.360023	36.950000
282.468885	-0.298658	36.966667
279.906916	0.195026	36.983333
277.986902	0.455866	37.000000
276.869187	0.644674	37.016667
275.911960	0.775268	37.033333
276.238645	0.439639	37.050000
275.763032	0.176564	37.066667
273.682528	0.496634	37.083333
273.367404	0.175774	37.100000
271.928856	0.263210	37.116667
270.811140	0.452764	37.133333
269.372592	0.540603	37.150000
268.896832	0.497177	37.166667
269.063173	0.002424	37.183333
266.661691	0.440711	37.200000
265.544120	0.412865	37.216667
264.265915	0.661405	37.233333
263.629665	0.676800	37.250000
262.993561	0.474563	37.266667
262.999559	-0.178178	37.283333
260.919053	0.144988	37.300000
260.122460	0.001937	37.316667
256.918386	0.950981	37.333333
257.565902	0.717730	37.350000
257.571753	0.283506	37.366667
255.972714	0.432680	37.383333
255.978420	0.215782	37.400000
254.219037	0.206957	37.416667
252.459508	0.415245	37.433333
251.341791	0.606975	37.450000
250.224073	0.798775	37.466667
250.711390	0.191060	37.483333
248.951861	0.400145	37.500000
248.155266	0.259531	37.516667
246.716715	0.352490	37.533333
244.957041	0.778222	37.550000
245.925824	-0.003405	37.566667
243.845316	0.323541	37.583333
242.567109	0.574622	37.600000
241.449535	0.551966	37.616667
240.331816	0.744918	37.633333
240.177176	0.372615	37.650000
239.380580	0.233916	37.666667
236.978949	0.893943	37.683333
238.268710	-0.002834	37.700000
235.546244	0.559247	37.716667
235.070625	0.304752	37.733333
234.274028	0.167200	37.750000
232.032886	0.769548	37.766667
230.915167	0.963519	37.783333
231.081360	0.690744	37.800000
230.124273	0.612195	37.816667
231.253687	-0.438852	37.833333
228.049897	0.086282	37.850000
226.932177	0.280920	37.866667
225.012156	0.553685	37.883333
224.054925	0.690170	37.900000
222.937205	0.885088	37.916667
223.263887	0.554798	37.933333
222.306942	0.264661	37.950000
222.633766	-0.278665	37.966667
219.750809	0.345639	37.983333
219.596166	-0.022083	38.000000
215.589643	1.224279	38.016667
216.558137	0.874042	38.033333
215.922027	0.681830	38.050000
215.927872	0.256361	38.066667
215.131272	0.123016	38.083333
213.692858	0.011039	38.100000
211.291367	0.462146	38.116667
211.457559	0.191550	38.133333
208.574600	0.818224	38.150000
209.382748	0.314273	38.166667
207.462724	0.591042	38.183333
206.665981	0.671141	38.200000
206.992803	0.130862	38.216667
204.751800	0.525075	38.233333
204.597155	0.160457	38.250000
203.479575	0.146446	38.266667
201.238571	0.541469	38.283333
201.083784	0.388701	38.300000
198.682291	0.842536	38.316667
198.527363	0.900935	38.333333
199.014814	0.092976	38.350000
196.452691	0.816616	38.366667
198.063565	-0.399455	38.383333
195.180604	0.230798	38.400000
193.742045	0.335669	38.416667
192.463834	0.592637	38.433333
190.704296	0.814733	38.450000
191.351953	0.370968	38.466667
190.555350	0.242971	38.483333
188.956300	0.407302	38.500000
188.962142	-0.012270	38.516667
185.437083	1.063226	38.533333
186.566348	0.235103	38.550000
184.806809	0.458774	38.566667
184.010204	0.332178	38.583333
183.374089	0.147408	38.600000
181.293571	0.488722	38.616667
180.657315	0.513415	38.633333
181.305112	-0.138149	38.650000
177.459074	1.055323	38.666667
178.748827	0.170406	38.683333
176.186702	0.896670	38.700000
176.674009	0.304267	38.716667
175.717053	0.029663	38.733333
173.796884	0.522625	38.750000
173.481745	0.223127	38.766667
171.240737	0.625157	38.783333
170.443991	0.709394	38.800000
171.252276	0.001421	38.816667
168.850778	0.462561	38.833333
169.819551	-0.303390	38.850000
167.097214	0.067755	38.866667
165.176905	0.769143	38.883333
164.701276	0.529844	38.900000
162.299639	1.199381	38.916667
164.552185	0.173884	38.933333
163.916205	-0.213474	38.950000
161.514706	0.249552	38.966667
161.520682	-0.370702	38.983333
157.514154	0.884157	39.000000
157.840830	0.560679	39.016667
156.883733	0.498513	39.033333
155.605519	0.759841	39.050000
156.413939	-0.151249	39.066667
153.851950	0.372002	39.083333
153.697159	0.224459	39.100000
152.419220	0.074542	39.116667
150.017582	0.745843	39.133333
150.504885	0.159082	39.150000
148.905830	0.332716	39.166667
148.109220	0.214236	39.183333
147.954566	-0.137907	39.200000
144.429503	0.943405	39.216667
145.237509	0.651010	39.233333
143.799080	0.562068	39.250000
143.162684	0.795993	39.266667
143.810750	-0.257451	39.283333
140.606665	0.707523	39.300000
142.057038	-0.432669	39.316667
138.853227	0.123838	39.333333
136.611940	0.942703	39.350000
137.420219	0.241724	39.366667
135.018716	0.710835	39.383333
135.345255	0.593848	39.400000
135.511714	-0.076619	39.416667
133.270700	0.334659	39.433333
134.079115	-0.568904	39.450000
129.591389	0.458617	39.466667
129.275835	0.779056	39.483333
128.479222	0.664764	39.500000
127.682473	0.753972	39.516667
128.490751	0.054999	39.533333
126.891828	0.030842	39.550000
126.255704	-0.140970	39.566667
125.298737	-0.398225	39.583333
121.131716	0.920462	39.600000
122.260836	0.308288	39.616667
119.859195	0.983488	39.633333
120.025380	0.722519	39.650000
120.994282	-0.235600	39.666667
118.432287	0.296323	39.683333
118.277764	-0.251265	39.700000
116.197236	0.105762	39.716667
113.153638	1.015936	39.733333
115.245692	0.053388	39.750000
112.362718	0.703590	39.766667
113.331483	-0.050603	39.783333
111.411578	0.047660	39.800000
109.330915	0.607330	39.816667
110.299679	-0.146161	39.833333
107.416704	0.505403	39.850000
107.422534	0.103598	39.866667
106.625917	-0.005282	39.883333
104.384898	0.412945	39.900000
104.390593	0.212379	39.916667
102.470552	0.513929	39.933333
101.834156	0.748098	39.950000
102.000608	0.088592	39.966667
99.438610	0.624982	39.983333
100.407373	-0.126397	40.000000
97.684886	0.469076	40.016667
97.048757	0.303672	40.033333
95.931161	0.314173	40.050000
94.010985	0.817224	40.066667
94.498147	0.442038	40.083333
94.022640	0.019481	40.100000
91.300018	0.815668	40.116667
92.108425	-0.074611	40.133333
89.064957	0.640021	40.150000
90.354564	-0.027393	40.166667
88.113676	0.196097	40.183333
86.353988	0.641639	40.200000
86.038837	0.361610	40.216667
84.439771	0.550370	40.233333
83.963997	0.527711	40.250000
84.451290	-0.044559	40.266667
81.247333	0.730566	40.283333
82.376583	-0.075516	40.300000
79.172624	0.700158	40.316667
79.338806	0.443764	40.333333
78.221340	0.260713	40.350000
76.461652	0.707511	40.366667
76.948944	0.136800	40.383333
75.510366	0.269308	40.400000
73.429831	0.636416	40.416667
73.275167	0.300764	40.433333
71.515610	0.551226	40.450000
72.163259	0.119967	40.466667
69.761877	0.408453	40.483333
68.965123	0.504748	40.500000
68.168633	0.208088	40.516667
66.087965	0.773397	40.533333
65.772678	0.694234	40.550000
65.778502	0.301704	40.566667
64.179564	0.299340	40.583333
64.506366	-0.209794	40.600000
61.944492	0.140394	40.616667
60.345292	0.530742	40.633333
60.190625	0.198153	40.650000
57.788978	0.881741	40.666667
58.918094	0.276050	40.683333
57.158666	0.334770	40.700000
56.843509	0.061644	40.716667
55.886526	-0.171756	40.733333
53.645499	0.259101	40.750000
52.688254	0.416018	40.766667
50.928694	0.671437	40.783333
50.292298	0.905906	40.800000
51.261184	-0.029400	40.816667
48.538689	0.578386	40.833333
48.865488	0.072623	40.850000
47.266416	0.270579	40.866667
45.988323	0.351548	40.883333
45.352186	0.198265	40.900000
43.111157	0.631517	40.916667
42.474760	0.866034	40.933333
42.320221	0.343812	40.950000
41.523594	0.250034	40.966667
40.726967	0.156504	40.983333
38.646556	0.339178	41.000000
37.689311	0.497928	41.016667
37.534640	0.170601	41.033333
35.614588	0.488557	41.050000
34.657342	0.647636	41.066667
33.860715	0.555496	41.083333
32.422130	0.698183	41.100000
33.390884	-0.038561	41.116667
30.507896	0.632452	41.133333
30.995181	0.072121	41.150000
28.754150	0.509075	41.166667
27.476053	0.594392	41.183333
27.963338	0.034775	41.200000
25.722306	0.472521	41.216667
24.444081	0.750154	41.233333
23.807941	0.601739	41.250000
23.171801	0.453570	41.266667
22.535661	0.305646	41.283333
22.060138	-0.091769	41.300000
20.300572	0.171566	41.316667
19.343453	0.141837	41.333333
16.139484	0.933705	41.350000
16.305533	0.875037	41.366667
15.990243	0.801734	41.383333
16.156675	0.171499	41.400000
15.360172	-0.106179	41.416667
13.279755	0.086089	41.433333
11.520060	0.541480	41.450000
11.204897	0.278940	41.466667
9.124351	0.662106	41.483333
8.969549	0.531053	41.500000
8.333407	0.386490	41.516667
7.536902	0.111419	41.533333
6.579780	0.084836	41.550000
4.338745	0.527994	41.566667
3.862964	0.514928	41.583333
2.263885	0.723739	41.600000
1.948593	0.652174	41.616667
2.596490	-0.149069	41.633333
